@relation featureMatrix-weka.filters.unsupervised.attribute.Remove-R2-6

@attribute unnormalizedSpectralEntropy numeric
@attribute class {0,1}

@data
585.92,0
483.5,0
492.85,0
327.3,0
245.88,1
436.29,1
1207.5,1
1933,1
1816.1,1
2056.5,1
2784.4,1
3181.2,1
3645.6,1
4066.7,1
3855.8,1
4126.4,1
4183.6,1
4490.6,1
5087,1
4384.8,1
4695.1,1
4146.5,1
3368.2,1
2863,1
2873.5,1
2914.5,1
3155.8,1
2647.8,1
2961.7,1
2959.9,1
3006.1,1
3549,1
3433.6,1
3241.5,1
3142.3,1
3412,1
3747.8,1
4311.1,1
4642.2,1
4343,1
4327.4,1
4034,1
4082.3,1
3951,1
3641.5,1
3988.8,1
3887.2,1
3555.5,1
3462.3,1
3495.6,1
3774.2,1
3828.2,1
2966.4,1
2530.8,1
1574,1
1697.4,1
733.96,1
564.64,1
541.72,1
607.13,1
438.41,1
361.03,0
287.23,0
391.86,0
494.51,0
260.92,0
598.51,0
1357.6,0
2023,0
2760.8,0
2889.6,0
3050.3,0
3213,0
3355.2,0
3396.6,0
2200.2,0
2356.1,0
2784,0
1789.4,0
2281,0
2343.6,0
1890.4,0
1067.5,0
819.77,0
948.91,0
647.31,0
569.05,1
1139.8,1
1197.9,1
2007.9,1
2255.2,1
2072.8,1
2851.9,1
3087.9,1
3196.8,1
2815.7,1
2391,1
2249.1,1
2866.3,1
2561.9,1
2404.2,1
2715.5,1
2848.5,1
2183.2,1
2746,1
2905.5,1
2552.9,1
2926.5,1
2763.7,1
2648.8,1
2324.1,1
2186.1,1
1626.6,1
1495.6,1
1786.5,1
1600.6,1
1900.7,1
1779,1
1957.9,1
2135,1
2230.8,1
2471.2,1
2029.2,1
1954.8,1
1846.1,1
2011.1,1
2105.4,1
2260.3,1
2229.8,1
2054,1
1896.7,1
1968.8,1
1801.8,1
1884.6,1
1884.1,1
1964.9,1
2078.4,1
1842,1
2130.1,1
1973.8,1
1670,1
2015.1,1
1865.7,1
1826.5,1
1795.2,1
1881.6,1
2073.9,1
2224,1
2475,1
2514.6,1
2218.8,1
2472.2,1
2319.5,1
2403.1,1
2438.9,1
2553.8,1
2738.1,1
2944.9,1
2991.9,1
2565.2,1
2930.2,1
2900.1,1
2960,1
3138.6,1
3216,1
2846.5,1
2780.1,1
2682.5,1
4165,1
6170.4,1
4878.6,1
8303.6,1
7573.8,1
7815.9,1
7006.6,1
6432,1
6096.2,1
4894,1
5070.3,1
4226.3,1
3879.2,1
4079.6,1
2377.8,1
2668.9,1
2268.4,1
1749.8,1
1805.5,1
1976.2,1
2352.1,1
2412.7,1
4173.9,1
2843.7,1
2659,1
2232.7,1
2050.7,1
1169.2,1
662.43,1
1152.1,1
700.1,1
708.6,1
589.39,0
396.82,0
324.78,0
301.17,0
353.33,0
261.07,0
228.71,0
147.72,0
141.77,0
157.48,0
21.059,0
7.3432,0
69.931,0
96.855,0
33.385,0
41.644,0
85.978,0
39.545,0
14.84,0
138.5,0
87.789,0
157.73,0
119.25,0
138.97,0
115.72,0
93.233,0
86.866,0
87.615,0
155,0
183.97,0
215.9,0
230.15,0
447.01,0
349.63,0
559.65,0
509.41,0
424.15,0
231.21,0
281.05,0
203.12,0
375.79,0
562.77,0
639.73,0
466.27,0
691.2,0
611.18,0
665.82,0
1054.8,0
866.84,0
723.66,0
713.34,0
837.87,0
828.3,0
754.14,0
850.36,0
980.5,0
1013.2,0
627.27,0
826.41,0
768.04,0
1131.9,0
1198.5,0
1744.1,0
2851.5,0
2989.9,0
2547.7,0
1224.1,0
1094.5,0
1121.8,0
1194.1,0
886.19,0
866.19,0
612.32,0
987.33,0
996.96,0
1422.5,0
1108.2,0
663.71,0
766.77,0
998.69,0
1117.4,0
814.96,0
1295.5,0
1510.4,0
1162.1,0
752.36,0
1280.1,0
1270.6,0
772.81,0
760.02,0
618.11,0
466.5,0
351.36,0
470.99,0
593.73,0
778.53,0
792.22,0
623.62,0
1161.4,0
671.15,0
633.47,0
487.88,0
304.39,0
313.34,0
419.57,0
332.62,0
189.14,0
216.94,0
217.25,0
178.25,0
135.14,0
126.46,0
100.73,0
125.24,0
211.48,0
168.5,0
258.18,0
462.78,0
485.21,0
348.32,0
420.58,0
420.34,0
249.82,0
352.08,0
176.87,0
279.1,0
162.07,0
177.15,0
131.25,0
65.992,0
210.32,0
371.64,0
443.16,0
402.41,0
347.07,0
259.96,0
237.81,0
266.63,0
419.25,0
318.45,0
302.27,0
226.91,0
298.95,0
325.07,0
401.87,0
303.68,0
282.51,0
222.83,0
264.52,0
149.32,0
332.87,0
382.17,0
419.25,0
375.13,0
718.37,0
671.82,0
783.83,0
728.83,0
822.16,0
1024.1,0
621.79,0
789.7,0
422.36,0
364.49,0
188.2,0
199.75,0
274.75,0
429.31,0
1485.7,0
1999.9,0
1628.3,0
1400.9,0
1208.7,1
1519.9,1
1120.3,1
809.39,1
1746.2,1
1573.5,1
1019.6,1
1185.6,1
991.79,1
1337.1,1
1127.7,1
1294.1,1
1099.1,1
858.62,1
796.85,1
1282.3,1
1308,1
956,1
1087.3,1
1090.6,1
1184.2,1
1194.7,1
998.08,1
1004.6,1
1120.1,1
893.98,1
1061,1
782.12,1
793.21,1
1055.9,1
1004.2,1
1084.4,1
862.41,1
831.07,1
643.43,1
617.51,1
747.92,1
1064.8,1
981.02,1
835.38,1
829.21,1
721.87,1
983.26,1
727,1
806.46,1
777.6,1
1225.9,1
1023,1
1292.1,1
1932.4,1
3666,1
3730.1,1
2918.8,1
4085.1,1
4677.8,1
6812,1
6364.1,1
6252.6,1
6081.5,1
4955.7,1
4476.6,1
3655.2,1
2777.3,1
2970.8,1
2576.2,1
2140,1
2417,1
2333.3,1
2180.6,1
2056.7,1
1864.3,1
1915.4,1
2098.2,1
1755.8,1
1811.5,1
2110.8,1
1682.1,1
1904.1,1
2041.6,1
1995.2,1
2188.5,1
2267.4,1
2311.9,1
2800.4,1
3274,1
2770,1
2027.5,1
2567.2,1
2667.3,1
2867.6,1
2992.4,1
2297.9,1
2544.8,1
2929.2,1
3596.9,1
3666.9,1
4587.2,1
4645.5,1
4536,1
4960.2,1
4650.4,1
5776.3,1
5261.6,1
4547.5,1
4352.4,1
3979,1
3612.3,1
3257.1,1
3425.7,1
3422,1
4222.7,1
4282,1
5108.3,1
4511.6,1
4261.8,1
3560.8,1
2259.4,1
3072.4,1
2445.2,1
2038.8,1
1471.9,1
1191.3,0
1313.8,0
1852.7,0
1122.9,0
920.69,0
724.51,0
739.27,0
504.34,0
620.48,0
544.36,0
454.4,0
546.65,0
384.7,0
553.37,0
347.47,0
238.15,0
433.57,0
327.37,0
183.08,0
119.25,0
147.41,0
153.35,0
208.43,0
185.06,0
148.88,0
171.68,0
147.63,0
186.88,0
217.05,0
317.32,0
820.22,0
550.22,0
600.57,0
586.95,0
502.31,0
522.13,0
439.65,0
459.27,0
505.41,0
412.67,0
583.88,0
782.98,0
621.31,0
873.85,0
649.34,0
316.14,0
466.44,0
357.72,0
443.92,0
210.49,0
406.11,0
693.61,1
1127,1
3092.6,1
4035.9,1
4069.1,1
3228.9,1
4247.1,1
4429.5,1
3184.4,1
2970.8,1
2840.1,1
2023,1
1582.9,1
1315.4,1
1088.9,1
710.73,1
678.06,1
514.64,0
418.83,0
913.09,0
1976.2,0
1166.4,0
755.52,0
725.01,0
756.35,0
718.82,0
479.78,0
615.44,0
987.77,0
1113.5,0
1187.6,0
819.41,0
899.16,0
1045.2,0
865.44,0
805.65,0
708.56,0
878.96,0
1063.4,0
816.64,0
635.49,0
740.35,0
678.05,0
710.56,0
1000.3,0
1102.8,0
1247.6,0
944.82,0
915.95,0
1012.6,0
731.97,0
595.69,0
392.25,0
330.25,0
344.95,0
338.33,0
166.85,0
191.67,0
231.07,0
213.45,0
397.04,0
463.66,0
356.55,0
322.31,0
492.97,0
658.25,0
349.47,0
612.88,0
367.02,0
702.24,0
400.08,0
521.92,0
405.41,0
496.88,0
675.15,0
573.14,0
709.02,0
753.31,0
620.37,0
426.41,0
449.57,0
311.15,0
452.01,0
694.39,0
752.82,0
470.15,0
628.08,0
736.72,0
413.97,0
290.75,0
307.79,0
156.12,0
152.89,0
317.74,0
447.51,0
643.96,0
1248.9,0
472.03,0
332.28,0
362.37,0
459.9,0
199.12,0
298.12,0
289.5,0
297.8,0
283.96,0
482.05,0
387.85,0
412.91,0
315.63,0
407.49,0
358.55,0
202.77,0
525.4,0
469.18,0
337.32,0
611.49,0
571.61,0
577.52,0
1196.3,0
2632.5,0
2084.3,0
1202.9,0
1077.2,0
1000.7,0
1014.2,0
384.66,0
740.09,0
883.15,0
751.99,0
1129.5,0
858.13,0
867.03,0
820.89,0
711.75,0
319.5,0
504.71,0
477.22,0
603.99,1
790.63,1
771.62,1
969.89,1
1087.2,1
891.94,1
1050.1,1
854.72,1
485.77,1
523.2,1
698.3,1
727.64,1
761.29,1
461.36,1
362.02,1
253.47,1
331.68,1
371.48,1
172.11,1
247.9,1
303.48,1
309.14,1
918.43,1
611,0
638.58,0
965.87,0
1113.1,0
1019.6,0
834.08,0
579.19,0
548.93,0
629.22,0
583.44,0
457.38,0
535.75,0
1199.9,0
1478.7,0
1224.8,0
1328,0
2012.3,0
1611.1,0
4.8504,0
31.772,0
43.153,0
48.665,0
7.6109,1
4.1902,1
848.96,1
1115.3,1
957.95,1
1052.9,1
1227.2,1
1453.9,1
1670.2,1
1772,1
1763.8,1
1963.2,1
2005.5,1
2227.7,1
2276.4,1
2639.4,1
2497.3,1
2595,1
2443.1,1
2243.3,1
2194.8,1
2212.7,1
2329.3,1
2103.8,1
2172.4,1
2358.1,1
2593,1
2578.2,1
2630.9,1
2497.9,1
2580.5,1
2623.6,1
2790.9,1
2999.7,1
2934.1,1
3026.7,1
3197,1
3058.7,1
3533.2,1
3377,1
3158,1
3531,1
3090.7,1
3008.8,1
2984.8,1
2660.5,1
3089.9,1
3439.5,1
2514,1
1965.7,1
1373.8,1
1176.3,1
433.23,1
105.52,1
31.718,1
8.9905,1
32.949,1
1.5599,0
41.947,0
67.573,0
56.057,0
7.8559,0
0.6776,0
31.907,0
38.552,0
12.699,0
14.768,0
1.7586,0
44.978,0
65.102,0
27.222,0
3.9497,0
34.624,0
6.6639,0
29.222,0
19.657,0
28.452,0
1.1974,0
4.27,0
15.783,0
15.057,0
3.8205,0
14.456,1
663.09,1
827.04,1
1197.4,1
1215.7,1
1426,1
1411.2,1
1626.9,1
1699.8,1
1651.3,1
1710.7,1
1805.5,1
1681.5,1
1809.5,1
1899.7,1
1750.3,1
1721,1
1613.2,1
1548.8,1
1575.1,1
1717.3,1
1683.8,1
1613.6,1
1315.1,1
1480.3,1
1344.8,1
1190.9,1
1264.8,1
1293.7,1
1156.2,1
1222.1,1
1360.4,1
1404,1
1369.2,1
1386,1
1304.6,1
1376.3,1
1461.4,1
1495,1
1510.9,1
1534.4,1
1541.4,1
1477.3,1
1503.5,1
1266.7,1
1076.5,1
1104.5,1
1220.2,1
1213.7,1
1098.6,1
1220.9,1
1062.6,1
1150.4,1
1175.7,1
1299.3,1
1204.3,1
1303.8,1
1438.3,1
1397,1
1452.1,1
1625.8,1
1817.4,1
1857.9,1
1888.9,1
1833.5,1
1756.3,1
1697.9,1
1798.4,1
1883.8,1
2102.8,1
2054.2,1
1941,1
2053.7,1
2051,1
2049.5,1
2029,1
2146.1,1
1998.3,1
1884.1,1
1913.3,1
1814.6,1
1906.7,1
1857.1,1
1663.4,1
1739,1
1543.1,1
1400.3,1
1379.8,1
1209.4,1
1289.1,1
1399.2,1
1381.3,1
1326,1
744.53,1
738.33,1
710.33,1
475.61,1
578.77,1
730.68,1
682.65,1
384.59,1
719.33,1
634.96,1
458.35,1
595.17,1
466.21,1
433.51,1
185.79,1
7.9393,1
32.763,1
82.74,1
2.9001,1
42.58,1
4.0176,1
45.466,0
156.35,0
34.516,0
11.31,0
91.79,0
139.57,0
36.196,0
46.369,0
18.891,0
30.64,0
26.494,0
11.643,0
34.009,0
12.923,0
56.281,0
7.8101,0
27.119,0
36.483,0
8.644,0
4.0446,0
24.427,0
24.578,0
21.489,0
30.243,0
80.346,0
17.665,0
73.181,0
85.77,0
51.925,0
51.757,0
48.309,0
1.515,0
37.371,0
63.39,0
40.988,0
11.555,0
31.145,0
31.19,0
67.695,0
53.609,0
66.217,0
0.22487,0
44.616,0
56.792,0
8.7558,0
49.326,0
11.801,0
85.986,0
165.16,0
91.798,0
19.304,0
15.004,0
3.5951,0
63.76,0
16.855,0
19.344,0
6.0929,0
84.771,0
78.939,0
265.85,0
194.86,0
196.29,0
310.17,0
258.54,0
230.07,0
199.83,0
235.06,0
125.99,0
66.025,0
13.474,0
28.974,0
14.455,0
19.855,0
19.949,0
47.692,0
4.8725,0
19.036,0
77.495,0
20.853,0
39.898,0
1.5017,0
128.36,0
17.049,0
64.553,0
16.98,0
21.541,0
14.591,0
62.062,0
16.459,0
53.058,0
11.871,0
212.87,0
37.194,0
10.278,0
12.501,0
72.995,0
29.688,0
30.756,0
96.374,0
7.447,0
23.936,0
8.8508,0
39.948,0
53.753,0
22.908,0
148.54,0
2.9213,0
122.63,0
14.87,0
20.252,0
156.99,0
32.482,0
71.804,0
9.7427,0
8.3246,0
3.7523,0
37.257,0
8.1527,0
10.476,0
8.9123,0
25.329,0
16.062,0
6.043,0
9.4175,0
35.822,0
7.0612,0
34.549,0
17.614,0
16.772,0
5.2311,0
11.512,0
44.833,0
12.233,0
2.5957,0
49.932,0
69.595,0
24.436,0
8.5541,0
0.43637,0
71.398,0
16.406,0
27.325,0
7.1257,0
4.5461,0
19.372,0
19.511,0
1.0995,0
30.237,0
24.093,0
34.914,0
34.23,0
88.075,0
37.963,0
39.601,0
24.907,0
32.62,0
27.504,0
5.8277,0
3.7812,0
43.709,0
88.206,0
36.455,0
31.755,0
56.373,0
11.33,0
35.879,0
14.111,0
0.18701,0
9.8526,0
10.556,0
60.231,0
44.425,0
110.17,1
499.14,1
420.13,1
391.97,1
928.67,1
1106.9,1
723.12,1
786.62,1
785.65,1
926.65,1
969.79,1
898.93,1
781.58,1
748.18,1
669.09,1
562.62,1
496.09,1
508.29,1
473.38,1
429.09,1
529.11,1
504.7,1
592.01,1
550.69,1
525.49,1
357.28,1
408.28,1
294.94,1
258.46,1
287.28,1
252.29,1
439.67,1
436.89,1
264.18,1
365.09,1
254.81,1
297.84,1
279.15,1
384.84,1
373.65,1
298.4,1
334.1,1
290.86,1
359.33,1
298.59,1
271.16,1
458.65,1
418.91,1
588.13,1
1446.1,1
2856.2,1
3316.8,1
2423.3,1
3531.9,1
4521.2,1
7063.7,1
6794.6,1
5928.4,1
5358.3,1
4601.5,1
3745.1,1
2635,1
2081.6,1
1842.3,1
1367.2,1
1158.3,1
1361.5,1
1161.2,1
1082.4,1
1132.8,1
1345.2,1
1336,1
1234.8,1
1310,1
1277.2,1
1091.3,1
962.65,1
1001.9,1
1046.9,1
1015.8,1
1434.2,1
1353.7,1
1422.6,1
1333.1,1
1473.5,1
1421.6,1
1347.5,1
1326.5,1
1444.7,1
1533.1,1
1593.9,1
1616,1
1794.6,1
1797,1
2062.2,1
2266.8,1
2430.6,1
2336.8,1
2470.1,1
2490.7,1
2522.7,1
2591.4,1
2698.2,1
2652.1,1
2580.5,1
2487.6,1
2351.6,1
2215.9,1
2139,1
2586.2,1
3302.4,1
3603.8,1
3928.6,1
3646.6,1
3146.9,1
2323.1,1
1559.1,1
901.1,1
353.64,1
22.401,1
26.994,1
20.817,0
10.671,0
14.019,0
3.6681,0
110.07,0
86.95,0
57.184,0
39.522,0
1.3353,0
39.232,0
44.886,0
5.5485,0
24.137,0
1.562,0
30.127,0
58.094,0
19.813,0
18.503,0
27.534,0
10.978,0
27.858,0
27.466,0
36.926,0
43.436,0
91.91,0
22.947,0
31.344,0
3.0866,0
12.127,0
6.915,0
37.369,0
1.1446,0
131.56,0
56.132,0
21.683,0
61.202,0
0.11592,0
89.124,0
143.74,0
125.38,0
95.072,0
159.84,0
111.13,0
69.9,0
56.622,0
3.3213,0
40.565,0
0.99974,0
37.222,0
64.761,0
8.1704,0
70.092,1
393.53,1
1572,1
2401.6,1
2471.6,1
2006,1
3205,1
3629.6,1
2194,1
2119,1
1637.2,1
1150,1
992,1
673.32,1
389.59,1
246.5,1
193.82,1
418.11,0
270.75,0
446,0
124.11,0
129.82,0
240.96,0
100.54,0
75.716,0
53.146,0
88.62,0
74.388,0
217.96,0
140.06,0
104.45,0
60.019,0
45.983,0
188.48,0
45.827,0
99.912,0
32.78,0
120.38,0
64.71,0
23.653,0
16.832,0
92.29,0
1.6606,0
53.739,0
4.362,0
3.0215,0
33.069,0
49.214,0
13.728,0
7.0793,0
10.475,0
41.817,0
6.5232,0
44.383,0
38.18,0
32.702,0
38.168,0
92.549,0
16.198,0
7.5315,0
23.296,0
30.401,0
25.44,0
126.22,0
24.95,0
7.7197,0
18.345,0
29.475,0
39.274,0
23.372,0
51.274,0
5.462,0
11.388,0
15.751,0
41.755,0
3.9053,0
33.987,0
40.176,0
5.1783,0
38.717,0
27.951,0
0.75886,0
34.829,0
55.086,0
16.361,0
18.757,0
20.546,0
90.652,0
33.555,0
53.027,0
34.871,0
95.926,0
16.374,0
4.3268,0
2.0713,0
1.5102,0
72.454,0
27.52,0
24.315,0
1.6917,0
47.195,0
23.548,0
3.3569,0
18.279,0
4.6589,0
4.9125,0
70.59,0
34.055,0
53.731,0
38.072,0
38.392,0
47.118,0
47.163,0
29.752,0
3.319,0
4.9294,0
40.874,0
6.7233,0
15.489,0
2.3605,0
28.549,0
2.6094,0
24.759,0
42.742,0
37.771,0
43.122,0
35.653,0
9.4373,0
32.392,0
85.727,0
0.92141,0
12.187,0
27.718,0
41.273,0
48.142,0
0.30724,0
17.934,0
12.729,0
76.754,1
36.275,1
44.593,1
112.52,1
164.75,1
374.86,1
359.76,1
254.64,1
155.42,1
234.34,1
299.91,1
460.52,1
477.83,1
109.95,1
13.725,1
53.398,1
28.791,1
46.633,1
22.366,1
38.738,1
13.05,1
8.8141,1
38.107,1
10.611,0
33.645,0
55.498,0
27.241,0
29.753,0
8.0336,0
33.666,0
2.2942,0
24.234,0
38.614,0
40.959,0
44.654,0
11.614,0
27.629,0
88.083,0
35.6,0
13.276,0
21.415,0
98.593,0
106.61,0
144.83,0
8.8416,0
31.787,1
7.322,1
856.38,1
1269.9,1
1169.6,1
1255.5,1
1275.9,1
1558.5,1
1682.6,1
1866.9,1
1850,1
2093.3,1
2446.4,1
2375.1,1
2443.8,1
2818.8,1
2622.9,1
2899.1,1
2842.8,1
2566.7,1
2576,1
2442.7,1
2460.5,1
2095.9,1
2303.9,1
2537.9,1
2706.6,1
3150.8,1
2751.7,1
2578.5,1
2772.2,1
3131.8,1
3234.8,1
3378.1,1
3539.4,1
3172.8,1
3208.4,1
3432.3,1
3422.7,1
3357.4,1
3516.3,1
3612.9,1
3352.5,1
3509.3,1
3116.5,1
3113.1,1
3327.3,1
3542,1
2705.7,1
2128.9,1
1579.5,1
1266.9,1
659.59,1
213.14,1
150.35,1
124.53,1
360.99,1
436.61,0
455.01,0
290.19,0
259.05,0
485.42,0
253.45,0
351.2,0
209.96,0
322.92,0
503.25,0
407.06,0
254.09,0
321.09,0
369.2,0
351.19,0
328.75,0
363.42,0
222.48,0
179.71,0
366.69,0
280.93,0
316.98,0
277.2,0
265.99,0
117.08,0
256.63,1
757.46,1
1063.4,1
1401.7,1
1593.6,1
1582.4,1
1774.3,1
1790,1
1844.3,1
1859.6,1
1916.3,1
1902.8,1
2088.6,1
1880.8,1
1908.7,1
2301.6,1
2152.6,1
2088.1,1
2250.7,1
1996.4,1
2053.8,1
2124.8,1
1965.4,1
1679.7,1
1884,1
1562.7,1
1564.4,1
1524.9,1
1357.4,1
1361.5,1
1670.6,1
1502.5,1
1504.8,1
1659.8,1
1472.3,1
1635.4,1
1706.7,1
1680.6,1
1730.1,1
1756.3,1
1666.8,1
1792.5,1
1756.1,1
1766.2,1
1423.3,1
1394.8,1
1486.6,1
1282.5,1
1372.5,1
1244.1,1
1320.7,1
1370.5,1
1265.6,1
1258.2,1
1518.4,1
1610.4,1
1478.5,1
1496,1
1644.9,1
1715.1,1
2058,1
2127.4,1
2104.1,1
2135,1
2130.1,1
2075.8,1
2098.2,1
2192.3,1
2218,1
2507.3,1
2363.5,1
2307.9,1
2244.1,1
2336.6,1
2274.4,1
2275.2,1
2358.4,1
2244,1
2099.9,1
2064.4,1
1978,1
2127.1,1
1987.1,1
1826.8,1
1695.7,1
1593.9,1
1681.2,1
1597.9,1
1345.1,1
1422.8,1
1449.4,1
1520.5,1
1279.6,1
878.53,1
936.78,1
999.13,1
872.76,1
1340,1
1201.9,1
1144.2,1
625.09,1
1247.9,1
1459.1,1
702.25,1
673.74,1
823.11,1
750.65,1
491.5,1
226.81,1
262.46,1
281.41,1
239.2,1
740.34,1
680.14,1
330.74,0
311.6,0
350.54,0
143.22,0
98.636,0
94.29,0
317.48,0
310.22,0
226.96,0
142.47,0
372.78,0
430.45,0
382.76,0
302.06,0
152.2,0
361.59,0
345.29,0
125.08,0
39.717,0
82.698,0
76.067,0
139.04,0
237,0
191.25,0
479.85,0
370.52,0
281.03,0
218.95,0
334.97,0
335.38,0
190.87,0
346.63,0
300.63,0
399.37,0
337.83,0
359.22,0
206.19,0
164.72,0
192.23,0
271.05,0
209.23,0
268.36,0
290.58,0
284.88,0
137,0
126.71,0
178.88,0
129.59,0
106.74,0
268.42,0
81.347,0
74.547,0
104.64,0
86.79,0
121.93,0
142.08,0
52.017,0
79.809,0
92.605,0
73.856,0
33.232,0
77.932,0
120.8,0
158.37,0
247.16,0
179.34,0
61.991,0
117.86,0
87.771,0
64.301,0
76.588,0
34.861,0
159.24,0
221.89,0
56.142,0
33.457,0
49.852,0
5.3048,0
12.066,0
54.306,0
48.384,0
5.6023,0
94.059,0
66.531,0
10.045,0
5.9415,0
5.7946,0
4.1878,0
125.08,0
108.81,0
14.167,0
20.477,0
92.608,0
3.2454,0
100.66,0
119.97,0
59.753,0
36.7,0
5.8746,0
40.926,0
13.467,0
44.761,0
74.454,0
60.706,0
101.94,0
195.6,0
119.01,0
82.774,0
242.98,0
184.33,0
34.43,0
21.918,0
72.67,0
35.276,0
75.724,0
68.405,0
28.435,0
51.905,0
151.47,0
85.141,0
20.448,0
31.86,0
10.662,0
58.791,0
65.619,0
84.327,0
148.08,0
62.09,0
76.687,0
65.085,0
66.025,0
25.53,0
53.298,0
135.15,0
105.66,0
70.945,0
84.545,0
132.3,0
181.47,0
146.72,0
127.25,0
171.15,0
124.79,0
314.98,0
282.55,0
335.76,0
361.74,0
384.49,0
351.79,0
319.17,0
262.3,0
140.1,0
384.87,0
150.38,0
89.968,0
86.858,0
143.27,0
45.855,0
109.01,0
165.45,0
86.758,0
90.578,0
64.328,0
115.56,0
137.04,0
127.26,0
150,0
121.63,0
196.51,0
190.94,0
174.34,0
104.29,0
200.36,1
684.01,1
662.98,1
610.88,1
898.79,1
1137.9,1
797.61,1
1022,1
843.34,1
1159.5,1
1032.7,1
1184.6,1
1067.2,1
895.62,1
734.4,1
727.29,1
751.77,1
788.34,1
617.26,1
568.12,1
696.49,1
753.02,1
900.97,1
700.52,1
663.2,1
488.94,1
586.92,1
428.91,1
320.86,1
453.04,1
252.08,1
544.18,1
602.45,1
613.85,1
591.53,1
324.55,1
345.04,1
409.47,1
446.63,1
467.1,1
458.13,1
416.39,1
556.01,1
581.01,1
441.7,1
510.83,1
593.57,1
515.86,1
745.15,1
1702.7,1
3236.3,1
3293.8,1
2429.4,1
3740.3,1
4635.3,1
6903.8,1
6745.6,1
6059.2,1
5451.4,1
4855,1
4047.8,1
2912.7,1
2308.6,1
1998.8,1
1636.9,1
1349.7,1
1358.8,1
1316.5,1
1184.4,1
1225.6,1
1175.1,1
1498.8,1
1338.1,1
1547.7,1
1330.1,1
1228.5,1
1052.3,1
1180.4,1
1099.6,1
1178.2,1
1377.3,1
1452.9,1
1496.9,1
1639.6,1
1540.2,1
1539.8,1
1482.9,1
1500.9,1
1407.3,1
1832.7,1
1845.1,1
1818.7,1
1792.4,1
1891.3,1
2160.9,1
2508.6,1
2650.7,1
2676.6,1
2855.2,1
2694.9,1
2690.6,1
2854.2,1
2959.3,1
2915.8,1
2905.9,1
2798.6,1
2725.6,1
2381.7,1
2467.7,1
2707.6,1
3455.9,1
3830.7,1
3927.9,1
3677,1
3376.1,1
2590.8,1
1645.9,1
1195.6,1
474.86,1
208.88,1
249.58,1
132.69,0
136.64,0
199.77,0
171.08,0
218.4,0
363.59,0
295.74,0
197.69,0
101.1,0
159.72,0
197.6,0
189.84,0
237.1,0
133.12,0
117.92,0
223.72,0
254.74,0
313.45,0
185.69,0
141.57,0
226.46,0
355.15,0
180.72,0
201.85,0
254.55,0
210.38,0
215.37,0
252.32,0
244.8,0
217.22,0
271.22,0
231.34,0
283.66,0
296.06,0
298.17,0
282.43,0
188.95,0
245.92,0
327.05,0
297.65,0
351.81,0
216.65,0
300.99,0
200.49,0
261.44,0
206.43,0
99.315,0
312.79,0
174.68,0
222.78,0
171.91,0
219.36,1
545.21,1
1706.6,1
2533.5,1
2487.4,1
2185,1
3396.7,1
3891,1
2536.5,1
2577.8,1
1904.6,1
1611.8,1
1212.1,1
683.44,1
326.01,1
180.47,1
153.89,1
80.137,0
106.22,0
135.11,0
78.679,0
143.42,0
152.04,0
231.78,0
123.25,0
132.87,0
142.94,0
199.8,0
206.54,0
284.76,0
265.69,0
319.24,0
213.91,0
264.37,0
205.74,0
109.41,0
134.48,0
180,0
142.35,0
152.87,0
204.33,0
139.33,0
233.16,0
93.795,0
94.877,0
117.39,0
113.05,0
131.31,0
243.69,0
205.63,0
168.63,0
29.652,0
78.594,0
84.37,0
98.28,0
167.4,0
185.34,0
278.95,0
151.75,0
115.34,0
162.58,0
224.55,0
158.25,0
328.56,0
84.085,0
194.55,0
223,0
154.93,0
183.72,0
203.78,0
17.266,0
141.38,0
319.13,0
105.12,0
140.38,0
148.76,0
392.39,0
212.82,0
128.7,0
220.48,0
99.332,0
123.77,0
220.85,0
192.44,0
156.31,0
178.54,0
248.97,0
168.62,0
148.74,0
125.78,0
156.57,0
80.722,0
131.69,0
199.79,0
312.06,0
203.95,0
178.98,0
120.95,0
256.2,0
164.62,0
120.97,0
179.64,0
98.567,0
189.33,0
82.482,0
139.92,0
152.02,0
82.393,0
157.7,0
153.27,0
143.04,0
85.214,0
230.35,0
110.21,0
121.93,0
233.85,0
162.58,0
195.1,0
138.54,0
222.97,0
192.45,0
177.84,0
97.467,0
140.84,0
190.39,0
107.89,0
163.17,0
282.9,0
175.03,0
185.94,0
150.48,0
135.08,0
122.76,0
142.35,0
184.88,0
122.06,0
235.41,0
222.36,0
153.55,1
141.46,1
123.95,1
321.5,1
378.95,1
423.54,1
485.55,1
376.52,1
212.93,1
290.18,1
502.78,1
549.64,1
623.88,1
207.14,1
157.52,1
70.953,1
175.76,1
216.95,1
187.04,1
131.72,1
185.83,1
25.3,1
177.65,1
135.63,0
19.408,0
27.203,0
184.5,0
70.681,0
119.61,0
63.863,0
212.98,0
95.078,0
164.41,0
76.904,0
79.229,0
196.12,0
194.7,0
149.49,0
110.88,0
68.012,0
67.382,0
675.24,0
548.95,0
560.59,0
373.65,0
301.49,0
509.49,0
564.31,0
601.34,0
895.08,1
1298.3,1
1979.6,1
2045.7,1
2763.3,1
2821.2,1
3025.7,1
3580.1,1
3461.8,1
3170.6,1
3422.8,1
3054.9,1
2965.4,1
2680.3,1
1554.3,1
967.85,1
1477,1
1092.4,1
1384.8,1
1250.1,1
1036.2,1
1116.2,1
1252.8,1
1412.2,1
1349.6,1
1458.2,1
1457.3,1
1348,1
2084.3,1
2348.5,1
2622.1,1
2247.4,1
2074.5,1
1769.4,1
1541.1,1
2317.3,1
2230.8,1
1605.8,1
1682.2,1
1829.3,1
986.82,1
1701.3,1
1882.7,1
2032.9,1
1285.6,1
1308,1
1285.3,1
1545,1
1454.3,1
3278.6,1
3764.6,1
4219.6,1
5142.9,1
5629,1
5860,1
5903,1
6053.4,1
6827.3,1
6819.9,1
7081.9,1
7619.1,1
7356,1
7241.7,1
6936.6,1
6898.6,1
6719.3,1
7448.6,1
6853.7,1
7241.9,1
7707.7,1
7291,1
8089.8,1
8434.2,1
6633.6,1
5603.2,1
4796.4,1
5030.2,1
4683.7,1
4154.7,1
3967.2,1
3566.6,1
3562.6,1
3785.5,1
3537.5,1
4298.1,1
4245.6,1
3826.8,1
3142.2,1
2902.1,1
3089.5,1
3135.4,1
3092.2,1
2738.4,1
2636.8,1
2912.5,1
2487.3,1
2277.5,1
2219.6,1
2044.5,1
1889.6,1
1577.2,1
1190.5,1
812.74,1
939.33,1
619.22,1
774.48,1
889.94,1
615.35,1
787.11,1
923.84,1
1112.8,1
1297.5,1
1516.1,1
1716.2,1
1257.7,1
893.24,1
876.08,1
678.13,1
551.93,1
581.58,1
509.64,1
627.72,1
621.04,1
786.7,1
581.69,1
648.1,1
720.55,1
701.71,1
929.72,1
1369.5,1
849.44,1
759.17,1
704.78,1
725.96,1
503.32,1
249.16,1
337.93,1
385.46,1
281.89,1
160.3,1
281.89,0
276.69,0
188.82,0
327.95,0
249.57,0
233.73,0
122.67,0
211.94,0
270.16,0
514.8,0
719.08,0
622.21,0
525.61,0
732.83,0
769.58,0
1002.8,0
1167.8,0
875.34,0
858.39,0
612.95,0
3183.6,0
5561.4,0
4186.1,0
7979.7,0
7504.7,0
7232,0
6973.2,0
5907.8,0
5501.6,0
4683.4,0
4382.5,0
4279.4,0
3684.3,0
4055.3,0
2310.9,0
2606.8,0
2412.7,0
1317.6,0
1799.5,0
1619.9,0
2227.5,0
2450.2,0
3892.9,0
2831.4,0
2283.6,0
2371.9,0
2323.2,0
1275.1,0
723.93,0
1384.5,0
912.66,0
931.26,0
1055.1,0
502.84,0
367.15,0
356.43,0
406.94,0
313.9,0
302.05,0
182.16,0
178.2,0
193.03,0
33.921,0
16.921,0
86.888,0
113.45,0
52.158,0
68.293,0
112.7,0
55.477,0
33.45,0
174.69,0
116.48,0
192.29,0
157.28,0
177.57,0
151.51,0
123.59,0
119.14,0
119.63,0
194.28,0
228.28,0
272.08,0
284.37,0
532.38,0
423.29,0
655.42,0
602.31,0
530.64,0
548.29,1
812.74,1
768.26,1
1171.6,1
1819.5,1
1804.7,1
1684.8,1
1493,1
1398.1,1
1659.6,1
2280.8,1
1770.5,1
1786.8,1
1708.1,1
2138.5,1
2123,1
1812.5,1
1939.5,1
1948.5,1
1940,1
1371.7,1
1791.7,1
1495.2,1
2166.9,1
2418.4,1
3115.2,1
3795.4,1
3928.3,1
3390.9,1
2035.6,1
2223.2,1
1952.3,1
2131.7,1
2010.1,1
1812.7,1
1879.8,1
2050.6,1
2109.3,1
2546.6,1
2170.6,1
1514.5,1
1772.9,1
1707.3,1
2479.9,1
2014.3,1
2050.4,1
2111,1
2235.9,1
1198.5,1
1426.3,1
1463,1
920.84,0
915.88,0
718.67,0
552.84,0
426.94,0
558.16,0
692.41,0
903.34,0
912.16,0
835.67,0
1709.9,0
1034.8,0
874.28,0
711.07,0
376.39,0
383.42,0
498.75,0
400.61,0
228.1,0
255.8,0
266.9,0
224.35,0
176.55,0
163.6,0
138.08,0
164.97,0
270.76,0
276.41,0
557.14,1
1149,1
1390,1
1442,1
1842.1,1
1692.1,1
1500,1
1376.4,1
1291,1
1412.2,1
1228.2,1
1262,1
1385.8,1
1128.9,1
1194.3,1
1086.9,1
1555,1
1267.6,1
1302.7,1
1164.3,1
1254.9,1
1405.1,1
1404.1,1
1287.9,1
1214.5,1
1604.6,1
1732.9,1
1642.1,1
1653,1
1440.6,1
1373.1,1
1501.7,1
1790.7,1
1700.4,1
1780,1
2057.1,1
2112.9,1
1827.7,1
2107,1
2360.8,1
1873.7,1
2513.3,1
1920,1
2708.9,1
1854.8,1
2893.7,1
3865.7,1
5140.4,1
5460.5,1
5152.2,1
6402.4,1
6828.3,1
7908.5,1
8217.5,1
9199.6,1
9407.2,1
9674.3,1
9667,1
9549.2,1
9979.4,1
10119,1
10864,1
9948.7,1
9205.3,1
9457.4,1
9249.3,1
9951.3,1
10740,1
10091,1
10833,1
10642,1
10839,1
11003,1
10355,1
8791.7,1
8579.3,1
8249.9,1
6885.8,1
6169.2,1
5148.3,1
5524.9,1
5406.9,1
5261.1,1
5094.4,1
5868.5,1
6598.6,1
6662.7,1
6579.8,1
6775.9,1
6154.2,1
5028.8,1
4432,1
3713.3,1
3099.5,1
2897.7,1
2757.2,1
2566.6,1
2212.5,1
2367.4,1
2406.2,1
2101.4,1
2218.9,1
2434.1,1
2241.4,1
2159.9,1
1732.6,1
1473.5,1
1526.4,1
1231.5,1
1526.6,1
1018.7,1
1235.6,1
756.11,1
2121.6,1
3243.4,1
1731.3,1
1359.5,1
1365.2,1
1065,1
1175.7,1
1083.1,1
1376.3,1
1649.3,1
1406,1
1889.7,1
1225,1
960.85,1
1077.5,1
1182.7,1
656.86,1
934.19,1
1316.5,1
1126.5,1
1290.4,1
1578.8,1
1532.2,1
1462.8,1
1488.2,1
1310.8,1
1521.3,1
2002.3,1
1968.3,1
1800.3,1
2278,1
2222,1
1222.1,1
1159.4,0
857.04,0
550.36,0
1464.8,0
1443.5,0
1314.4,0
2632.5,0
2990.9,0
2665.7,0
2973.2,0
2772.8,0
3795.6,0
3408.1,0
2515.5,0
2321.7,0
1928.1,0
1137.8,0
1018.2,0
1109.7,0
1190.6,0
1206.5,0
850.36,0
2478.5,0
2040.4,0
2017.2,0
1298.8,0
889.55,0
2279.1,0
2948.3,0
2260.9,0
1634,0
1540.4,1
1584.8,1
2159.6,1
1409.8,1
1602.7,1
1360.8,1
1484.5,1
1430,1
1744.1,1
1718.4,1
1656,1
1576.9,1
1395.9,1
1168.7,1
1265.4,1
1073.3,1
1450.6,1
1348.8,1
1288.1,1
1055,1
1112.5,1
1045.2,1
1143,1
1276.1,1
1090.2,1
1050.2,1
1187.3,1
897.43,1
1304.9,1
1136.6,1
1894.6,1
1457.4,1
1408.8,1
1688.3,1
1147.1,1
1325.1,1
1300.6,1
1217.9,1
1385.2,1
1155.8,1
1119.4,1
1267.9,1
1231.9,1
887.72,1
723.69,1
661.19,1
608.98,1
539.64,1
884.58,1
263.22,1
399.5,1
692.78,1
872.77,0
1575.9,0
1700.1,0
1512.7,0
1558.4,0
1108,0
827.69,0
731.03,0
694.9,0
762.68,0
829.81,0
759.4,0
978.71,0
993.24,0
821.68,0
787.24,0
588.31,0
488.73,0
1062.7,0
2588.6,1
1929.6,1
1735,1
1652.6,1
2160.3,1
1602.6,1
1795.1,1
1374.3,1
1650.8,1
2165.8,1
2337.6,1
1902.5,1
1677.4,1
1760,1
1889.2,1
1932.5,1
1748.1,1
1954,1
1895.3,1
1960.8,1
1414.3,1
1925.4,1
1712.5,1
1701.1,1
1991.3,1
2162.7,1
2406.1,1
2012.5,1
1852,1
1638.8,1
1795.3,1
1417.8,1
1275,1
1233.4,1
1101.2,1
1078.8,1
1151.7,1
1066.4,1
1058.8,1
1031.3,1
1366.9,1
1272.8,1
1252.3,1
1309.3,1
1305.1,1
1752.7,1
894.07,1
1489.8,1
1309.6,1
1414.3,1
816.32,1
674.27,1
487.31,0
591.49,0
792.07,0
645.69,0
805.87,0
891.66,0
737.26,0
501.47,0
576.54,0
387.57,0
512.06,0
814.97,0
887.23,0
547.06,0
715.55,0
826.05,0
484.97,0
339.86,0
366.83,0
201.65,0
196.33,0
382.01,0
525.65,0
792,0
1705.9,1
1024.4,1
1131.4,1
1500.5,1
1677.8,1
1600,1
1492.8,1
1378.5,1
1383.2,1
1183.6,1
1233,1
1155.9,1
1540.5,1
1252,1
1502.6,1
1554.9,1
1301.5,1
1735.8,1
1455.3,1
1463.6,1
1694.2,1
1520.5,1
1591.6,1
2375.7,1
3817.3,1
3062.9,1
2034.4,1
1828.7,1
1696.8,1
1907.2,1
1541.1,1
1774.9,1
1804.9,1
1783.5,1
1732.6,1
1699.7,1
1651.3,1
1643.3,1
1200.5,1
551.02,1
687.12,1
646.17,1
746.82,1
833.79,0
779.93,0
877.54,0
1055.8,0
653.71,0
838.04,0
706.29,0
470.39,0
497.23,0
431.17,0
336.02,0
299.47,0
349.71,0
413.69,0
291.8,0
380.99,0
405.92,0
207.13,0
255.66,0
349.63,0
364.17,0
1064.9,0
711.42,0
730.76,0
1092.2,0
1410.3,1
1545,1
1876.6,1
1502,1
1899.3,1
1909.4,1
1919.9,1
1728.7,1
1633.9,1
2084.6,1
2326.7,1
2246.9,1
2162,1
2772.2,1
2834.5,1
3400.4,1
3207.5,1
2921.5,1
3591,1
2685.4,1
2919.6,1
2920.3,1
1950.7,1
2331,1
2545,1
1811.8,1
1650.5,1
1078,1
1700.4,1
1269,1
1470.2,1
1207.5,1
1075.1,0
650.14,0
558.25,0
269.45,0
306.54,0
353.23,0
559.4,0
555.74,0
587.22,0
513.41,0
522.07,0
358.44,0
444.37,0
203.48,0
257.18,0
317.12,0
147.9,0
110.03,0
242.82,0
389.48,0
942.77,0
1096.1,0
1012.9,0
1319.8,0
880.48,0
1151.9,0
757.21,0
46.679,0
5.1495,0
12.286,0
24.229,0
80.586,0
48.675,0
21.67,0
117.17,0
235.48,1
540.85,1
540.34,1
709.37,1
863.6,1
641.73,1
729.49,1
710.79,1
621.15,1
643.18,1
616.36,1
651.26,1
803.61,1
875.17,1
700.31,1
797.73,1
775.96,1
791.52,1
728.58,1
882.52,1
857.89,1
841.2,1
1018.6,1
869.99,1
882.28,1
924.68,1
881.06,1
921.9,1
1059.2,1
930.34,1
973.26,1
979.06,1
1160.2,1
1107.9,1
1281.8,1
975.93,1
1171.4,1
1192.2,1
1226.6,1
1368.1,1
1387.2,1
1420.5,1
1376.1,1
1209.3,1
1173.8,1
1136.7,1
1358.3,1
1330.4,1
1517.1,1
2957.8,1
3533.2,1
4052.8,1
5221.3,1
5839,1
5878.4,1
5684.2,1
6137.6,1
6906.5,1
6505.1,1
6619.9,1
6637.6,1
6377.2,1
5898.9,1
4741.2,1
5241.8,1
5174.1,1
5898.4,1
5674.1,1
6158.7,1
6118.9,1
6530.3,1
6503.6,1
6832.6,1
5399.3,1
4747.8,1
5022.1,1
4570.3,1
3928.6,1
4121.9,1
3626.8,1
3591.6,1
3396.4,1
2997.5,1
3525.2,1
3217.4,1
3124.9,1
2992.9,1
2352.5,1
2656.1,1
2776.1,1
2407.2,1
2634.8,1
2550.1,1
2126.1,1
2453.3,1
2129,1
1675.6,1
1633.2,1
1388.2,1
1126.4,1
640.78,1
369.74,1
384.14,1
350.82,1
424.33,1
494.4,1
567.93,1
579.54,1
693.16,1
849.03,1
812.73,1
846.34,1
961.22,1
912.38,1
812.68,1
836.23,1
625.67,1
545.48,1
395.58,1
326.98,1
161.04,1
223.64,1
314.51,1
198.09,1
259.09,1
250.31,1
330.89,1
306.45,1
442.24,1
336.59,1
435.5,1
403.15,1
451.03,1
295.89,1
408.68,1
466.39,1
425.89,1
302.21,1
249.92,1
213.21,1
127.9,0
57.406,0
40.096,0
48.485,0
66.412,0
85.021,0
25.448,0
88.766,0
47.163,0
14.832,0
158.18,0
1.9154,0
15.724,0
11.397,0
65.378,0
13.911,0
58.875,0
194.56,0
255.71,0
165.13,0
11.519,0
40.464,0
142.4,0
13.434,0
40.369,0
35.235,0
36.423,0
130.45,0
39.822,0
96.723,0
121.95,0
8.4026,0
31.652,0
140.81,0
53.165,0
200.68,0
253.06,0
326.28,0
204.4,0
31.08,0
99.091,0
149.75,0
53.713,0
36.196,0
56.592,0
18.758,0
9.2597,0
74.658,0
134.79,0
70.3,0
200.07,0
326.56,0
399.06,0
252.9,0
84.542,0
63.428,0
188.69,0
264.61,0
8.4416,0
19.844,0
81.814,0
7.9173,0
11.823,0
69.669,0
100.86,0
34.125,0
39.54,0
35.673,0
4.2098,0
4.3521,0
38.776,0
50.24,0
18.423,0
18.075,0
89.964,0
9.4108,0
177.1,0
28.924,0
169.65,0
192.39,0
12.575,0
8.2079,0
3.3179,0
71.714,0
127.25,0
35.972,0
1.4674,0
81.868,0
57.877,0
374.29,1
577.97,1
743.86,1
1003.7,1
1123.3,1
1084.2,1
1016.1,1
1106.2,1
1054,1
937.14,1
1174.4,1
1477.9,1
1321.9,1
1249.4,1
1241.7,1
1205.6,1
1125.7,1
1064.1,1
1083.5,1
1010.3,1
1157.5,1
1399,1
1557,1
1564.3,1
1706.1,1
1781.1,1
1702.4,1
1475.4,1
1372.3,1
1392.9,1
1223.5,1
1402.3,1
1256.5,1
1249.1,1
1296.8,1
1210.4,1
1208.4,1
1346,1
1221.4,1
992.14,1
1388.3,1
1206.3,1
983.26,1
1255.9,1
1365.9,1
1134.9,1
1134.1,1
833.58,1
532.35,1
163.86,1
140.19,1
83.37,0
141.28,0
39.759,0
352.35,0
6.6193,0
68.999,0
69.337,0
157.98,0
94.26,0
73.246,0
604.03,0
308.86,0
71.732,0
129.16,0
101.13,0
165.65,0
15.568,0
274.85,0
54,0
223.58,0
23.612,0
71.2,0
271.76,0
3.5172,0
60.525,0
35.609,0
34.297,0
67.631,0
428.85,1
735.92,1
1068.5,1
1249,1
1459.9,1
1590.7,1
1474.8,1
1405,1
1209.6,1
1195.5,1
1177.9,1
1212.1,1
1322.6,1
1130.7,1
1131.7,1
970.11,1
1014.8,1
1041.3,1
1123.7,1
1281.9,1
1120.6,1
1155.1,1
941.64,1
1140,1
1395.3,1
1344.1,1
1406.6,1
1478.2,1
1498.3,1
1486.2,1
1459.8,1
1588,1
1637.8,1
1631.2,1
1713,1
1752.4,1
1603.4,1
1767.8,1
1534.3,1
1719,1
1697.4,1
1713,1
1671.3,1
1549.1,1
1572.9,1
2126.2,1
3808,1
5084,1
5475.4,1
5068.9,1
6347.6,1
6848.2,1
7693.3,1
8149.3,1
8758.3,1
8718,1
9521.9,1
9289.5,1
9449.8,1
9873,1
9820.1,1
11144,1
9903.8,1
8839.6,1
9490.9,1
9365.2,1
9978.3,1
10647,1
10100,1
10774,1
10655,1
10811,1
10782,1
10151,1
8631.1,1
8587.8,1
7896,1
6848.5,1
5889.9,1
5243.7,1
5488.9,1
5019.4,1
5149.9,1
4371.4,1
5750.7,1
6401.2,1
5952.8,1
6422,1
6494.6,1
5465.2,1
4994.9,1
3959.7,1
3572.7,1
2887.4,1
2432.6,1
2181.4,1
2019.9,1
1903,1
1922.3,1
2134.6,1
1719.6,1
1757.1,1
1868.3,1
1623,1
1578.2,1
1449.5,1
1449.8,1
1190.5,1
1135.6,1
1069.9,1
752.31,1
640.57,1
500.78,1
530.9,1
511.39,1
522.74,1
477.35,1
453.2,1
458.31,1
454.95,1
496.43,1
471.8,1
726.52,1
706.38,1
673.74,1
435.11,1
491.44,1
558.45,1
700.08,1
753.2,1
544.57,1
502.25,1
542.48,1
543.9,1
478.38,1
624.38,1
819.81,1
841.22,1
810.52,1
632.27,1
850.28,1
1045.2,1
1256,1
1220.9,1
1031.9,1
161.03,1
55.066,0
49.624,0
223.95,0
141.38,0
110.82,0
24.286,0
85.569,0
24.374,0
69.206,0
20.869,0
51.335,0
103.03,0
37.397,0
124.41,0
221.88,0
5.8914,0
38.877,0
122.3,0
121.36,0
50.118,0
25.017,0
58.285,0
104.36,0
207.32,0
14.169,0
27.6,0
245.42,0
26.218,0
44.092,0
6.5317,0
4.6779,0
274.28,1
231.8,1
125.01,1
271.57,1
767.39,1
916.5,1
869.3,1
981.58,1
1200.9,1
1327.9,1
1199.3,1
1208.7,1
936.67,1
909.64,1
933.23,1
1088.2,1
1001.5,1
1247.1,1
1047,1
1162.7,1
949.7,1
989.06,1
993.92,1
1168.8,1
1152.8,1
1165.1,1
1052,1
933.81,1
1132.5,1
995.39,1
1006.4,1
935.82,1
1084.4,1
1059.6,1
890.5,1
966.13,1
843.75,1
722.98,1
1067.2,1
936.37,1
704.92,1
801.88,1
566.81,1
220.39,1
7.6469,1
399.56,1
89.282,1
138.14,1
602.09,1
131.69,1
2.8247,1
42.115,1
28.519,0
50.682,0
39.406,0
174.29,0
118.56,0
199.93,0
44.612,0
6.4388,0
58.181,0
18.943,0
4.0883,0
83.024,0
465.6,0
312.03,0
381.92,0
337.84,0
668.68,0
471.32,0
813.11,0
772.4,1
1336.1,1
1610.4,1
1183.8,1
1555.3,1
1385.3,1
1459.3,1
1293.3,1
1282.7,1
1277.4,1
899,1
1082.3,1
919.36,1
849.95,1
938.74,1
1157.7,1
956.3,1
1238.2,1
1236.8,1
1186.4,1
1155,1
1265.6,1
1128.7,1
1236.3,1
1001.5,1
994.75,1
1229.5,1
1053.1,1
1088.9,1
1007.8,1
1069.4,1
928.76,1
946.84,1
1076.8,1
855.92,1
938.41,1
969.96,1
1267.5,1
1022,1
941.42,1
951.81,1
1073,1
903.34,1
1028.6,1
945.67,1
964.69,1
992.07,1
861.06,1
801.01,1
729.68,1
498.14,1
245.3,1
63.236,0
24.465,0
13.472,0
48.357,0
4.8639,0
10.434,0
42.76,0
18.612,0
118.17,0
35.398,0
3.2416,0
124.87,0
22.77,0
93.543,0
10.595,0
173.25,0
2.8112,0
35.847,0
9.6973,0
200.21,0
74.854,0
48.227,0
63.672,0
268.66,0
558.68,1
609.16,1
1051.2,1
1110.3,1
1335.6,1
1400,1
1226.8,1
1046.9,1
980.07,1
919.08,1
1141.1,1
999.65,1
1008.9,1
1048.8,1
1052.1,1
1188.7,1
1223.2,1
1180.8,1
1191.4,1
1044.9,1
1338.1,1
1227.8,1
1099,1
1179,1
1185.3,1
1153.3,1
1252.2,1
1016.4,1
1265.2,1
1086.8,1
1208.1,1
1127.4,1
1212.7,1
1118.5,1
940.16,1
718.11,1
761,1
789.89,1
881.92,1
405.47,1
184.55,1
100.09,1
125.16,1
0.23055,0
9.2755,0
18.453,0
22.971,0
71.767,0
126.3,0
45.203,0
47.831,0
85.36,0
38.566,0
8.1217,0
126.32,0
31.02,0
67.346,0
132.16,0
6.0506,0
27.56,0
28.519,0
108.91,0
92.259,0
71.236,0
3.5791,0
38.552,0
0.10311,0
33.183,0
281.58,1
690.65,1
1170.3,1
1380.7,1
1472.7,1
1425.8,1
1431.7,1
1281,1
1314.3,1
1237.6,1
1036.3,1
1112.9,1
1063.5,1
1087.5,1
957.94,1
1121.3,1
874.58,1
1081.9,1
824.75,1
762.41,1
899.82,1
765.03,1
1006.9,1
858.55,1
1038,1
864.04,1
448.09,1
628.67,1
382.65,1
191.65,1
90.932,1
225.93,1
104.59,0
30.796,0
49.708,0
41.043,0
19.555,0
89.04,0
42.721,0
105.26,0
36.587,0
19.425,0
34.911,0
41.226,0
8.0616,0
105.6,0
117.79,0
71.535,0
99.976,0
16.751,0
80.594,0
121.46,0
64.393,0
52.499,0
169.86,0
70.113,0
46.753,0
43.202,0
31.927,0
191.64,0
214.85,0
239.37,0
71.204,0
5.8646,0
49.309,0
140.38,0
225.36,0
425.72,1
512.53,1
639.52,1
796.75,1
884.17,1
911.16,1
759.8,1
729.94,1
661.08,1
568.96,1
748.44,1
854.69,1
766.29,1
1021.2,1
975.3,1
865.47,1
995.83,1
936.3,1
1148.1,1
1047.7,1
1089.7,1
1261.2,1
872.99,1
1178.5,1
1225.4,1
1070.4,1
1068.1,1
1338.4,1
1391.7,1
1530.5,1
1437.5,1
1060,1
1140.6,1
1425.2,1
1288.3,1
1270.9,1
1534.1,1
1323.3,1
1376.5,1
1667.9,1
1556.6,1
1362.2,1
1472.7,1
1577.7,1
1311.1,1
1260.6,1
1250.4,1
1074.6,1
1570.2,1
2775.4,1
3341.4,1
3689.5,1
5180.3,1
6045.8,1
5986,1
5724.1,1
5928.1,1
6889,1
5802.2,1
6072.3,1
6936.3,1
6429.1,1
6116.6,1
5354.2,1
5166.8,1
5203.3,1
5457.1,1
5263,1
6442.5,1
6556.2,1
6553.8,1
6668.3,1
7018.1,1
5665.2,1
5258.5,1
4826.8,1
4490.1,1
4169.9,1
3930,1
3613.3,1
3356,1
3509.3,1
3605.5,1
3442.9,1
3369.2,1
3269.8,1
2767.8,1
2602.5,1
2826.7,1
2783.2,1
2758.9,1
2552,1
2469.3,1
2873.7,1
2872.4,1
2421.3,1
2420.9,1
2110.2,1
1886.6,1
1450,1
1117.6,1
846.14,1
958.29,1
753.55,1
811.87,1
919.26,1
726.33,1
857.61,1
1003.2,1
677.21,1
821.98,1
1133.6,1
1168.8,1
1141.6,1
974.89,1
1070.3,1
703.58,1
758.84,1
488.38,1
524.47,1
352.08,1
399.6,1
370.72,1
417.11,1
574.13,1
634.08,1
371.32,1
381.58,1
608.35,1
404.21,1
469.31,1
455.82,1
766.57,1
747.94,1
496.86,1
367.27,1
472.91,1
532.96,1
521.64,1
467.31,1
461.46,0
395.42,0
335.23,0
495.14,0
394.09,0
357.65,0
316.23,0
564.37,0
276.08,0
182.82,0
326.12,0
362.18,0
210.89,0
278.66,0
335.94,0
194.14,0
175.87,0
381.83,0
165.35,0
195.65,0
170.42,0
256.39,0
149.76,0
133.81,0
420.28,0
222.18,0
205.45,0
171.55,0
244.7,0
237.51,0
369.05,0
438.7,0
332.43,0
390.38,0
534.17,0
1235.3,0
1019.8,0
1090.1,0
524.9,0
854.77,0
1019.1,0
442.9,0
361.42,0
452.9,0
482.09,0
460.04,0
378.82,0
386.66,0
461.4,0
410.41,0
1192.2,0
1149.4,0
843.37,0
482.7,0
536.35,0
265.73,0
199.04,0
193.16,0
498.88,0
500.13,0
380.61,0
257.15,0
583.63,0
676.53,0
591.08,0
482.04,0
259.27,0
550.14,0
549.71,0
222.01,0
106.79,0
172.15,0
174.45,0
263.53,0
397.02,0
321.31,0
721.76,0
575.72,0
455.93,0
364.66,0
525.17,0
525.6,0
333.94,0
551.89,0
493.9,0
628.72,0
544.47,0
574.25,0
434.09,0
559.36,1
730.82,1
1173.6,1
1297.7,1
1138.9,1
1413.7,1
1413.1,1
1175,1
994.15,1
1280.5,1
1411.1,1
1191.1,1
1383.3,1
1369.5,1
1264.3,1
1294.6,1
1172.2,1
1324.7,1
1132.8,1
847.87,1
972.75,1
1182.5,1
1115.2,1
1184.3,1
1321.6,1
1192.8,1
1088.2,1
1443.2,1
1376.3,1
1085.5,1
1266.7,1
1105.6,1
1160,1
1313.3,1
1376.5,1
1268.5,1
1426.3,1
1236.8,1
1242.6,1
1079.1,1
1079.4,1
1053.7,1
1288.4,1
1375.7,1
1096.8,1
1349.6,1
927.63,1
772.43,1
636.4,1
117.1,1
73.402,1
220.61,0
205.35,0
85.988,0
22.15,0
181.38,0
60.226,0
198.08,0
222.84,0
140.61,0
191.86,0
390.63,0
387.12,0
163.89,0
254.62,0
147.48,0
184.74,0
197.29,0
326.46,0
211.08,0
170.07,0
385.5,0
306.91,0
107.65,0
95.265,0
163.7,0
108.65,0
166.28,0
169.88,0
259.06,1
852.78,1
1185.5,1
1307.4,1
1440.6,1
1445.2,1
1259.2,1
1495.2,1
1292.2,1
1354,1
1222.2,1
1161.3,1
1299.3,1
1358.4,1
1268.9,1
1089.1,1
987.38,1
1215.7,1
1178.2,1
1194.5,1
1255.6,1
1214.6,1
1133.8,1
1139.9,1
1342.8,1
1504.1,1
1679.7,1
1788,1
1763.1,1
1853,1
1961.4,1
1841.8,1
1520.6,1
1935.6,1
1933.2,1
1792.3,1
2359.2,1
1937.9,1
1784.7,1
1639.3,1
1490.5,1
1640.8,1
1890.5,1
1788.6,1
1613.6,1
2518,1
3740.7,1
4894.3,1
5495.8,1
5109.7,1
6374.3,1
6933.3,1
7900,1
8254.9,1
8874.3,1
8720.2,1
9358.5,1
9663,1
9516.5,1
9950.6,1
10128,1
10713,1
9875.6,1
8990.6,1
9611.5,1
9544.6,1
10022,1
10695,1
10189,1
10794,1
10770,1
11019,1
10749,1
10230,1
8793.6,1
8762.8,1
8082,1
6857.6,1
6196.8,1
5216.5,1
5413.5,1
5027.6,1
5284.4,1
4967.1,1
5768.6,1
6355.9,1
6165.4,1
6418.6,1
6456.9,1
5992.6,1
5041.3,1
4207.8,1
3587.4,1
2926.7,1
2723.6,1
2067.1,1
2218.6,1
1889.1,1
2042.6,1
2321.7,1
2143.3,1
2061.4,1
1914.4,1
1897.9,1
1471.2,1
1540,1
1512.7,1
1386.7,1
1200.2,1
1164.6,1
958.55,1
828.12,1
1036.4,1
623.94,1
755.28,1
941.46,1
715.71,1
628.9,1
455.84,1
649.65,1
624.84,1
797.24,1
625.37,1
581.19,1
588.29,1
454.58,1
280.39,1
649.61,1
546.02,1
652.28,1
685.82,1
594.49,1
619.07,1
714.94,1
711.51,1
711.05,1
728.25,1
884.4,1
663.33,1
791.01,1
787.85,1
1108.4,1
1452.9,1
1431,1
1094.8,1
290.77,1
153.32,0
132.71,0
273.31,0
268.12,0
242.99,0
201.92,0
281.74,0
525.69,0
461.99,0
166.85,0
189.19,0
143.44,0
284.08,0
187.29,0
274.96,0
348.73,0
358.45,0
248.55,0
400.32,0
125.34,0
197.22,0
220.26,0
134.8,0
167.93,0
138.29,0
176.45,0
191.3,0
382,0
186.64,0
318.94,0
429.46,0
368.09,1
363.59,1
345.46,1
444.05,1
861.5,1
1280.6,1
1284.6,1
1046.1,1
1366.6,1
1498.7,1
1306.4,1
1168.3,1
1306.5,1
1030.5,1
1096.7,1
1388.4,1
1393,1
1518.6,1
1364.9,1
1144.3,1
1390.4,1
1670,1
1237.6,1
1461.6,1
1076.1,1
1242.8,1
1371.2,1
1243.3,1
1230.8,1
1076.7,1
1252.2,1
1314.6,1
918.86,1
1362.4,1
1263.1,1
1144.3,1
982.12,1
1137.7,1
1155.7,1
1087.8,1
1022.5,1
869.44,1
627.66,1
405.31,1
186.88,1
552.43,1
258.61,1
468.48,1
589.94,1
316.52,1
253.04,1
220.91,1
252.19,0
360.32,0
339.03,0
335.19,0
234.66,0
297.19,0
547.12,0
211.89,0
358.73,0
357.55,0
552.56,0
325.11,0
373.24,0
242.43,0
294.19,0
273.88,0
194.35,0
229.52,0
434.79,0
637.28,1
1311.2,1
1415.2,1
1559,1
1581.6,1
1552.8,1
1412.5,1
1508.8,1
1390.3,1
1119.1,1
1110.9,1
1516.3,1
1200.3,1
1155.5,1
1083.1,1
1152.9,1
1059.1,1
1231.9,1
1286.6,1
1434.8,1
1196.6,1
1245.5,1
1388.2,1
1315.5,1
1025.1,1
1082.5,1
1239.9,1
1241.3,1
1175.2,1
1275.3,1
1225.2,1
1071,1
1007.7,1
1161.3,1
849.2,1
1271.3,1
1190,1
1245.1,1
945.69,1
1173.6,1
1147.8,1
1497.5,1
1311,1
1524.7,1
1012.4,1
1276.6,1
1299.1,1
1041.2,1
1069.2,1
802.04,1
469.76,1
439.72,1
492.35,0
197.39,0
254.61,0
282.88,0
663.29,0
413.7,0
267.23,0
404.9,0
230.21,0
217.04,0
370.18,0
336.7,0
283.89,0
323.16,0
405.93,0
301.81,0
270.83,0
250.22,0
282.65,0
182.79,0
248.56,0
353.37,0
520.61,0
584.78,0
524.87,1
747.5,1
1202.1,1
1368.7,1
1604.4,1
1662.1,1
1234.9,1
1293,1
949.96,1
1218.7,1
1135.9,1
985.25,1
1299.5,1
1172.4,1
1064.4,1
1197,1
1582.4,1
1235.2,1
1337.6,1
1516.9,1
1357.7,1
1485.6,1
1288.2,1
1435.3,1
1290.8,1
1537.5,1
1269.3,1
1316.2,1
1465.6,1
1322.6,1
1167.1,1
1277.4,1
1189.6,1
1125.2,1
1194.4,1
973.61,1
829.3,1
1193.5,1
886.72,1
468.23,1
417.11,1
397.07,1
311.59,1
190.09,0
88.091,0
242.99,0
328.19,0
143.35,0
237.23,0
302.66,0
318.86,0
134.64,0
305.38,0
133.55,0
245.71,0
181.97,0
282.36,0
158.94,0
286.57,0
330.63,0
304.76,0
227.43,0
311.38,0
100.16,0
305.86,0
249.56,0
85.575,0
90.764,0
481.09,1
757,1
1143.5,1
1398.5,1
1679.9,1
1522.2,1
1548,1
1395.8,1
1159.1,1
1301.8,1
1376.9,1
1269.1,1
883.33,1
967.56,1
1137.8,1
1173.9,1
882.7,1
1047.1,1
819.91,1
982.84,1
958.95,1
1042.3,1
906.19,1
1389,1
1017.9,1
854.94,1
675.09,1
524.78,1
374.58,1
311.1,1
164.25,1
236.55,1
221.32,0
364.45,0
298.71,0
186,0
134.88,0
164.07,0
214.43,0
343.51,0
418.4,0
362.27,0
317.14,0
188.42,0
314.55,0
137.57,0
212.11,0
142.53,0
231,0
272.45,0
152.04,0
373.53,0
268.5,0
183.9,0
179.63,0
230.41,0
108.49,0
178.41,0
8.9672,0
538.99,0
428.88,0
439.58,0
283.54,0
226.85,0
383.59,0
427.46,0
546.15,0
685.22,0
848.39,0
1634.2,0
1904.5,1
2614.8,1
3015.2,1
2561.9,1
2622.6,1
2725.8,1
3117.3,1
3299.7,1
3112.2,1
2537,1
2318.2,1
1222.9,1
969.99,1
1131.5,1
903.24,1
1137.7,1
1146.8,1
828.2,1
924.54,1
1069.1,1
1267,1
1345.5,1
1705.6,1
1115.5,1
1126.8,1
1312.8,1
1641.7,1
2150.8,1
2200.4,1
1715.7,1
1302.6,1
1159.4,1
1274.9,1
1186.5,1
982.82,1
1017.7,1
754.59,1
698.12,1
698.78,1
1110.7,1
694.81,1
216.87,1
391.41,1
432.77,1
401.66,1
322.52,1
465.41,1
567.83,1
560.24,1
424.77,1
325.98,1
269.53,1
366.31,1
468.5,1
319.39,1
598.97,1
1347.9,1
2003.1,1
2783.4,1
2767.7,1
3086.7,1
3133.6,1
3482,1
3325.8,1
2174.5,1
2498.3,1
2941.5,1
1951.8,1
2317,1
2425.6,1
2115.9,1
1161.8,1
951.23,1
1002.2,1
725.08,1
889.65,1
820.67,1
776.51,1
888.56,1
943.45,1
1027.8,1
1278.6,1
1772.7,1
1666.9,1
1121.1,1
784.53,1
947.78,1
1001.6,1
1211,1
848.68,1
882.85,1
1158.7,1
724.61,1
924.61,1
1102.9,1
899.71,1
1080.3,1
1272.7,1
1080.8,1
861.17,1
1051.5,1
1025.9,1
1367.6,1
1497.6,1
1250.6,1
1364.9,1
1515.6,1
1936.5,1
1944.1,1
3438.5,1
5333.2,1
6373.8,1
6130.2,1
6160.3,1
5808.9,1
5012.3,1
5806.1,1
5931.5,1
5903.3,1
5900.4,1
6053.2,1
6217.3,1
6208.1,1
6163.4,1
6618,1
6543,1
6493.4,1
7041.5,1
6516.4,1
6574.9,1
6625.7,1
6065.4,1
6283,1
5920.8,1
5868.6,1
5834.6,1
5872.2,1
5495.6,1
5239.1,1
6143.3,1
5673.8,1
5237.2,1
4787.1,1
4392.3,1
4150,1
4639.2,1
4671,1
4457.8,1
4950.2,1
4631.6,1
4772.4,1
4335.7,1
3887.9,1
4125.1,1
3146.3,1
2994.7,1
2699.6,1
4691.9,1
6058.6,1
5070.6,1
8317.8,1
8260.4,1
7737.4,1
7352.5,1
6250.2,1
6086.9,1
4994,1
5091.7,1
4827.2,1
4296.5,1
4648.9,1
3205.1,1
3397.1,1
3043.7,1
2409.9,1
2614.3,1
2311.7,1
2633.6,1
2745.4,1
3661.9,1
2800.6,1
2207.4,1
2426.2,1
2364.5,1
1426.9,1
898.59,1
1247.6,1
956.47,1
961.46,1
866.35,1
683.49,1
540.75,1
550.4,1
644.04,1
502.95,1
472.26,1
374.24,1
443.67,1
413.14,1
341.24,1
382.98,1
362.97,1
381.82,1
340.86,1
308.28,1
349.31,1
299.61,1
259.61,1
291.69,1
233.78,1
323.89,1
299.38,1
325.26,1
233.25,1
245.08,1
203.04,1
177.29,1
213.63,1
306.9,1
261.08,1
298.88,1
523.24,1
347.54,1
669.16,1
454.56,1
509.35,1
273.15,1
363.19,1
304.29,1
406.06,1
513.57,1
751.94,1
631.06,1
814.75,1
688.04,1
611.44,1
1029.5,1
847.1,1
813.93,1
639.74,1
886.82,1
882.54,1
688.56,1
809.92,1
1038.6,1
1012.6,1
718.2,1
923.42,1
825.24,1
1056,0
1127.1,0
1647,0
2700.6,0
2859.4,0
2396.2,0
1171.6,0
1014.8,0
1051.9,0
1124.8,0
819.73,0
800.3,0
559.27,0
926.36,0
931.16,0
1327.8,0
1033.6,0
614.32,0
712.76,0
931.9,0
1040.3,0
752.51,0
1211.2,0
1413,0
1086.3,0
696.3,0
1197.6,0
1188.8,0
716.19,0
704.04,0
575.98,0
642.84,0
606.1,1
869,1
1038.9,1
1008.5,1
1067.8,1
1158.8,1
1573.4,1
948.58,1
1119.1,1
1135.3,1
792.45,1
676.05,1
657.34,1
675.72,1
733.61,1
744.31,1
723.18,1
635.75,1
835.56,1
850.41,1
716.11,1
689.14,1
957.7,1
1578,1
3028.9,1
2872.9,1
3909.3,1
4225.5,1
4571.1,1
4620.5,1
5058.2,1
5115.8,1
5374.2,1
4431.9,1
4166,1
4354.9,1
5265.1,1
5507.3,1
5410.4,1
4870.5,1
5996,1
6694.5,1
6176.2,1
6220,1
6777.4,1
6517.1,1
6692.7,1
7253.4,1
6855.9,1
7439.8,1
8012.7,1
6664.2,1
6400.4,1
6559.9,1
6025.4,1
6092.2,1
6500.9,1
6042.4,1
5106.1,1
5254,1
5234,1
5047.7,1
5436.6,1
5373.3,1
5371,1
5015.9,1
4461.9,1
5242.7,1
4970.8,1
5096.5,1
4242.6,1
4978.9,1
3999.3,1
4577.1,1
3906,1
3919.6,1
4458.9,1
4662.7,1
4123.7,1
4083.1,1
4130.4,1
3994.8,1
3566.7,1
3724.5,1
3430.4,1
3396,1
3474.4,1
3194.4,1
3590.7,1
3726.4,1
3729.8,1
3869.5,1
3006.5,1
3485.9,1
2621.5,1
2513,1
2771.4,1
2034.8,1
2266,1
2456.6,1
2593.9,1
2020.9,1
2170.3,1
2196.7,1
1833.2,1
1548.9,1
1511.2,1
1286.2,1
1106.1,1
1199.2,1
1125,1
971.88,1
1200.7,1
1271.5,1
1013.1,1
865.6,1
607.96,1
811.03,1
795.03,1
704.61,1
639.66,1
440.56,1
474.12,1
352.51,1
345.36,1
435.17,1
746.61,1
713.03,1
627.94,1
414.51,1
490.25,1
457.9,1
272.77,1
700.76,1
504.44,1
730.16,1
592.32,1
1665.3,1
2667.1,1
1505.9,1
1330,1
1362.1,1
1219.9,1
1256.3,1
1301.1,1
1428.5,1
1676.4,1
1434.4,1
1679.4,1
1434.7,1
1083.5,1
1139.3,1
929.67,1
688.29,1
717.07,1
1152.1,1
1183.3,1
1224.4,1
1185.8,1
1229.9,1
1197.3,1
1226.7,1
967.26,1
1221.7,1
1661.6,1
1206.8,1
1007.7,1
1192.1,1
1331.6,1
1351,1
1206,1
1119.5,1
467.47,0
1180,0
1169.4,0
1055.6,0
2148.3,0
2444.3,0
2191.8,0
2461.2,0
2270.3,0
3135.1,0
2833.1,0
2032.3,0
1838.5,0
1571.4,0
911.81,0
804.69,0
873.82,0
956.29,0
976.16,0
664.23,0
2048.9,0
1670.4,0
1641,0
1050.1,0
703.45,0
1859.2,0
2426.7,0
1850,0
1321.5,0
1093.2,0
1220.1,0
1712.7,0
1072,0
963.42,0
896.68,0
965.29,1
833.23,1
1048.2,1
853.49,1
903.99,1
1076.9,1
854.85,1
966.76,1
827.1,1
704.16,1
967.4,1
655.3,1
645.51,1
769.48,1
654.49,1
618.67,1
698.16,1
706.45,1
695.35,1
623.82,1
515.25,1
444.57,1
559.2,1
654.01,1
1275.8,1
1108.9,1
1077.1,1
962.73,1
893.83,1
990.91,1
907.94,1
1378.2,1
1150.4,1
1704.5,1
2644.8,1
3344.7,1
3096.9,1
3485.3,1
3267.3,1
3541.6,1
3066.2,1
2871.1,1
3251.3,1
4918.5,1
4590.6,1
5377.1,1
5236,1
4748.9,1
5550.6,1
5274.9,1
5598,1
5004.9,1
4698.7,1
4326.9,1
4399.3,1
4098.9,1
4577.2,1
3880.4,1
4974.2,1
4169,1
3413.1,1
4124.4,1
4099.9,1
3969.9,1
4263.1,1
4692.1,1
3998.8,1
3728,1
4548.8,1
4117.1,1
4107.9,1
4269.8,1
4365.1,1
4207.8,1
4497.4,1
4281.9,1
4236.6,1
4148,1
4109.3,1
3351,1
2962.7,1
2581.3,1
2189.1,1
2737.2,1
2962,1
2125.5,1
2437.2,1
2214.8,1
2268.6,1
2521.1,1
2613.7,1
2671,1
2456.1,1
2806.3,1
2429.1,1
2074.5,1
2272.6,1
2473.9,1
2171.9,1
1853.2,1
1995.1,1
1977.4,1
2601.9,1
2367.1,1
2113.9,1
1933.2,1
1751.3,1
2168.9,1
2036.6,1
1944.7,1
2295.1,1
2470.2,1
1868.4,1
2521.3,1
2362.8,1
1819.9,1
2468.1,1
2650.7,1
1622.9,1
1704.3,1
2059.1,1
1617.7,1
2291.6,1
1980.1,1
2447.6,1
1594.5,1
2027.8,1
1308.2,1
1314.2,1
1284.8,1
1043.9,1
1281.3,1
1071.9,1
727.13,1
872.6,1
874.38,1
679.8,1
620.21,1
806.6,1
779.75,1
884.81,1
1387.4,1
674.6,1
655.05,1
606.18,1
546.98,1
387.81,1
368.83,1
336.29,1
359.39,1
281.7,0
431.48,0
372.53,0
381.93,0
252.18,0
380.83,0
330.01,0
182.88,0
487.1,0
430.35,0
306.83,0
564.72,0
527.54,0
541.04,0
1118.8,0
2502.4,0
1971,0
1118.6,0
1009.2,0
933.6,0
960.71,0
360.85,0
699.35,0
831.75,0
704.05,0
1050.8,0
789.55,0
802.83,0
764.52,0
663.19,0
294.23,0
469.59,0
436.92,0
488.32,0
648.25,0
651.17,0
733.67,0
860.02,0
519.96,0
658.28,0
550.92,0
328.56,0
381.35,0
337.71,0
269.34,0
231.5,0
270.94,0
318.27,0
215.67,0
289.06,0
312.31,0
144.92,0
191.85,0
268.12,0
280.75,0
870.35,0
573.37,0
586.23,0
911.42,0
1149.2,0
1241.8,1
943.14,1
920.83,1
780.97,1
833.52,1
853.87,1
803.8,1
720.74,1
1132.9,1
1804.5,1
1625.2,1
1469.5,1
2181.6,1
1932.1,1
2296.8,1
2567,1
2260.5,1
2716,1
2283.9,1
2407.1,1
2744.2,1
2094.1,1
1780.5,1
1772.9,1
2251.6,1
1667.9,1
1440.1,1
1558.4,1
1714.9,1
1951.8,1
2036.6,1
1644.8,1
1091.1,1
1079.2,1
1248.5,1
1055.4,1
1261.5,1
1864.9,1
2299.9,1
3021.9,1
2742.1,1
3476.2,1
4589.9,1
4816.6,1
4516.1,1
3657.7,1
4931.8,1
4737.8,1
4737.2,1
4268.8,1
3634.4,1
4215.1,1
3605.6,1
3712.8,1
3745.6,1
3619.6,1
3866.2,1
5076.9,1
5545.2,1
4837.8,1
4630.4,1
5310.4,1
3577.3,1
4334.3,1
3053.5,1
3846.2,1
2944.8,1
2624.5,1
2617.7,1
2735.6,1
2363,1
1950.3,1
1773.9,1
1558,1
1677.3,1
1874.5,1
2671.2,1
2588.8,1
2716.4,1
2985.9,1
2264.6,1
1699.1,1
2288.8,1
2078,1
1483,1
1007.9,1
1127.3,1
1308.1,1
1273.3,1
1105.2,1
1063.2,1
816.26,1
767.01,1
637.98,1
671.21,1
458.19,1
435.04,1
416.71,1
431.06,1
474.77,1
622.85,1
650.39,1
554.11,1
523.72,1
437.81,1
457.57,1
220.04,1
357.63,1
416.64,1
1045.6,1
636.55,1
588.52,1
702.22,1
744.31,1
834.54,1
802.75,1
1014,0
1428.1,0
1742.6,0
1416.2,0
922.62,0
710.37,0
548.59,0
662.39,0
716.16,0
505.01,0
300.19,0
662.66,0
612.58,0
591.3,0
390.62,0
390.24,0
367.27,0
380.79,0
361.52,0
250.46,0
180.71,0
195.4,0
222.47,0
395.18,0
322.4,0
341.58,0
396.18,0
232.61,0
347.15,0
34.697,0
2.3217,0
27.688,0
41.227,0
47.062,0
20.832,0
4.2793,0
1.2286,0
10.041,0
60.023,0
123.72,0
236.15,0
553.61,1
786.02,1
830.64,1
872.64,1
766.06,1
709.38,1
713.7,1
598.52,1
590.89,1
551.28,1
669.7,1
558.47,1
539.67,1
522.42,1
553.71,1
576.58,1
643.05,1
637.89,1
561.71,1
773.95,1
752.12,1
741.35,1
747.11,1
654.37,1
652.75,1
633.3,1
565.52,1
524.81,1
550.92,1
577.83,1
390.76,1
481,1
448.91,1
430.3,1
387.81,1
289.02,1
311.65,1
383.99,1
265.31,1
281.71,1
169.53,1
86.575,1
118.73,1
344.45,1
254.69,1
208.84,1
103.84,1
105.15,1
59.698,1
21.909,1
34.933,1
34.003,1
80.676,1
72.276,1
63.406,1
106.1,1
140.45,1
154.83,1
89.579,1
156.51,1
178.99,1
158.8,1
270.77,1
245.57,1
202.97,1
189.54,1
287.94,1
239.25,1
196,1
176.03,1
231.96,1
263.4,1
255.52,1
258.1,1
276.49,1
333.22,1
387.47,1
364.82,1
333.16,1
355.04,1
429.44,1
308.83,1
410.47,1
323.77,1
341.6,1
321.78,1
383.17,1
243.31,1
327.68,1
397.85,1
280.25,1
282.88,1
164.72,1
178.34,1
190.99,1
340.74,1
322.63,1
341.93,1
363.42,1
544.91,1
595.88,1
618.43,1
910.19,1
1017.6,1
1030.5,1
981.76,1
1155.6,1
1461.4,1
1517,1
2784.6,1
4738.1,1
5744.9,1
5579.8,1
5793,1
5393,1
4732.7,1
5449.8,1
5420.5,1
5532.3,1
5616.1,1
5707.4,1
5922.8,1
5563.9,1
5878,1
5852,1
5905.7,1
6105.3,1
6449,1
6010.3,1
6407.1,1
5960.2,1
5839,1
6090.7,1
5540.6,1
5578.2,1
5447,1
5388.3,1
5365.3,1
4858.6,1
5699.6,1
5262.6,1
4695.8,1
4477.6,1
4182.8,1
3777.7,1
4280.3,1
4071.2,1
3791.5,1
4241,1
3960.9,1
3869.6,1
3640.9,1
2818.4,1
3089.2,1
2388.6,1
2313.6,1
2123.5,1
2179,1
1713.1,1
1630.6,1
1936.3,1
1517.4,1
1521.3,1
1268.6,1
1445.6,1
1257.2,1
1221,1
1296,1
1213.9,1
1219,1
1367.6,1
1230.1,1
1279.5,1
1275.8,1
1118.6,1
1147.4,1
891.27,1
986.06,1
1025.3,1
804.39,1
649.3,1
575.91,1
442.74,1
414.89,1
391.26,1
371.93,1
282.57,1
347.83,1
330.49,1
360.65,1
435.49,1
271.96,1
288.38,1
386.24,1
441.37,1
281.04,1
261.74,1
294.44,1
274.63,1
282.03,1
342.48,1
339.58,1
234.12,1
182.84,1
257.18,1
194.45,1
193.5,1
215.28,1
196.04,1
146.59,1
108.76,1
180.36,1
90.581,1
197.67,1
86.895,1
201.07,1
175.3,1
23.501,1
54.676,1
48.603,1
92.296,1
118.91,1
38.955,1
58.184,1
79.043,1
63.647,1
63.238,1
19.38,1
62.404,1
57.104,1
65.788,1
70.624,1
41.993,1
115.97,1
183.26,1
146.92,1
247.18,1
262.22,1
224.99,1
83.14,1
73.521,1
117.11,1
178.53,1
106.01,1
103.45,1
122.69,1
183.62,1
269.82,1
416.86,1
207.05,0
205.55,0
311.36,0
265.18,0
242.07,0
196.97,0
265.42,0
138.55,0
65.916,0
18.951,0
35.871,0
9.2619,0
19.365,0
12.253,0
50.555,0
3.0586,0
18.853,0
79.148,0
17.461,0
41.072,0
2.6056,0
126.79,0
15.124,0
64.68,0
15.121,0
23.542,0
13.848,0
65.67,0
16.02,0
53.319,0
15.684,0
390.03,0
211.67,1
307.99,1
370.81,1
438.99,1
498.44,1
486.77,1
609.91,1
547.4,1
558.08,1
621,1
617.77,1
660.07,1
539.22,1
720.35,1
570.93,1
609.96,1
553.7,1
629.23,1
786.55,1
549.44,1
494.98,1
632.56,1
796.61,1
1289.1,1
2432.7,1
2519.7,1
3080.8,1
3607.9,1
3982.8,1
3904.9,1
4944,1
4557.5,1
5043.9,1
4003.8,1
3390.4,1
4166,1
4867.5,1
5173.2,1
4984.2,1
4085.7,1
5401.3,1
6269.9,1
5576.5,1
5857.5,1
6426.3,1
6045.6,1
6356.4,1
7216.3,1
6354.6,1
7315,1
7511.4,1
6456.4,1
5860.8,1
5986.3,1
5380.5,1
5778.9,1
5905.1,1
5659.2,1
4707,1
4856.3,1
4659.9,1
4445,1
4730.6,1
4695.7,1
4315.7,1
4180.9,1
3816.9,1
4148.4,1
4429.2,1
3995.4,1
3642.9,1
4520.8,1
3394.9,1
4203.6,1
3273.7,1
3133.7,1
3359.4,1
3032.6,1
3124,1
2724.8,1
3017.8,1
2966.7,1
2866.7,1
2828.1,1
2925.5,1
2838.2,1
2937.6,1
2747,1
3139.4,1
3311.4,1
3344.7,1
3354.2,1
2717.2,1
3214.2,1
2323.6,1
1986.7,1
1868,1
1552.7,1
1774.9,1
1727.5,1
1802.3,1
1499.3,1
1493.6,1
1636.4,1
1224.1,1
1084.2,1
946.71,1
799.17,1
723.74,1
636.52,1
517.73,1
452.27,1
530.92,1
539.56,1
485.83,1
440.26,1
311.9,1
173.41,1
149.37,1
130.64,1
94.929,1
107.79,1
29.299,1
39.546,1
26.616,1
29.487,1
193.7,1
77.867,1
31.067,1
113.48,1
181.19,1
141.58,1
197.57,1
196.77,1
191.22,1
264.96,1
324.51,1
360.07,1
376.54,1
456.3,1
567.24,1
649.68,1
586.07,1
613.53,1
562.85,1
627.88,1
721.74,1
647.42,1
595.42,1
492.27,1
465.61,1
435.55,1
526.21,1
511.73,1
396.96,1
356.6,1
435.92,1
481.16,1
500.17,1
451.63,1
579.75,1
547.09,1
457.8,1
441.75,1
474.47,1
417.92,1
331.98,1
304.41,1
311.36,1
194.26,1
253.59,1
310.4,1
177.32,0
64.909,0
43.979,0
17.804,0
24.096,0
46.217,0
8.0991,0
59.516,0
5.4456,0
27.052,0
6.7316,0
40.27,0
96.09,0
40.467,0
11.888,0
54.161,0
46.181,0
2.4212,0
16.002,0
5.5621,0
37.286,0
106.92,0
20.526,0
13.213,0
134.97,0
11.582,0
1.4461,0
26.501,0
43.398,0
26.657,0
12.902,0
14.707,0
44.587,0
146.14,0
181.23,0
239.89,1
333.06,1
341.89,1
393.32,1
493.7,1
491.42,1
423.69,1
495.39,1
426.22,1
536.9,1
497.1,1
497.92,1
447.06,1
555.29,1
475.31,1
519.72,1
508.19,1
560.77,1
626.77,1
463.82,1
522.27,1
397.65,1
468.09,1
441.02,1
577.98,1
588.33,1
750.17,1
545.82,1
388.59,1
587.88,1
622.91,1
749.61,1
1049.1,1
1570,1
2030.2,1
2515.8,1
2365.2,1
3102.1,1
2625.2,1
2929.8,1
2643.8,1
2250.8,1
2842.4,1
4838.8,1
4111.7,1
4727.1,1
4453.9,1
3818.6,1
4342.4,1
4621.3,1
5195,1
4348.9,1
3765.5,1
3756.3,1
3995,1
3585.7,1
4003.8,1
3375,1
4136.5,1
3629.2,1
3183.8,1
3620.3,1
3608.8,1
3717.9,1
3920.4,1
3491,1
2994.8,1
3265.2,1
3896.9,1
3539.5,1
3541.4,1
3669.8,1
3716.2,1
3537,1
3487.7,1
3315.1,1
3250.2,1
3235,1
3258.5,1
2728.9,1
2231.4,1
1815.3,1
1327,1
1564.8,1
2031.2,1
1435.2,1
1749.6,1
1585.4,1
1434.5,1
1364.9,1
1426.5,1
1548.9,1
1485.9,1
1807.7,1
1415.6,1
1277.5,1
1403.3,1
2001.5,1
1785.9,1
1336.1,1
1397.4,1
1619.6,1
2222.4,1
1993.5,1
1718.6,1
1327.3,1
1141.5,1
1679.6,1
1806.4,1
1347.2,1
1541.9,1
2066.3,1
1123.7,1
1895.2,1
1373.1,1
1251.5,1
1871,1
2186.1,1
1013.2,1
935.5,1
1436.2,1
803.47,1
1422.9,1
1305.1,1
1799.9,1
1021.3,1
1523.2,1
760.19,1
706.09,1
617.63,1
532.19,1
557.43,1
474.72,1
284.07,1
443.9,1
492.18,1
623.37,1
490.42,1
441.42,1
413.72,1
303.65,1
380.28,1
218.84,1
253.99,1
239.65,1
142.92,1
187.61,1
137.93,1
87.748,1
64.129,1
31.039,0
95.733,0
57.992,0
36.103,0
40.565,0
36.842,0
44.514,0
57.249,0
25.987,0
4.0674,0
0.64434,0
52.234,0
11.142,0
8.4002,0
5.7768,0
24.563,0
0.4017,0
26.409,0
42.014,0
42.345,0
39.595,0
36.319,0
5.5338,0
38.369,0
84.316,0
0.70142,0
14.636,0
31.386,0
45.786,0
44.315,0
4.2633,0
15.069,0
17.391,0
41.825,0
36.697,0
36.138,0
21.183,0
19.207,0
16.405,0
46.062,0
1.3071,0
14.779,0
28.089,0
2.1173,0
34.672,0
62.62,0
12.126,0
15.639,0
60.583,0
18.414,0
45.399,0
9.7001,0
41.896,0
32.157,0
17.689,0
30.388,0
3.562,0
22.481,0
49.201,0
170.06,0
279.81,1
434.3,1
397.94,1
463.04,1
391.14,1
417.94,1
297.86,1
382.09,1
353.34,1
320.04,1
421.21,1
378.77,1
387.86,1
440.32,1
492.46,1
460.58,1
616.09,1
651.27,1
593.92,1
642.92,1
702.39,1
697.85,1
738.57,1
727.83,1
767.79,1
831.08,1
635.56,1
677.02,1
688.42,1
723.55,1
767.98,1
695.78,1
541.01,1
640.28,1
963.82,1
854.05,1
962.43,1
1137.4,1
1761.5,1
2617.7,1
2007.4,1
2971.6,1
4084.2,1
4292,1
4126.7,1
3107.3,1
4325.1,1
4521.3,1
4452,1
3748.7,1
3080.7,1
3649.9,1
2853.6,1
3320.7,1
2748.7,1
3117.8,1
3126.7,1
4053.4,1
4711,1
3973.8,1
3770.4,1
4329.8,1
2991.7,1
3649.5,1
2606.2,1
2972.2,1
2059.1,1
2217.9,1
1869.3,1
1935.6,1
1900.2,1
1599.2,1
1381.9,1
1082.2,1
1224,1
1326.6,1
1444.9,1
1537,1
1646.9,1
1402.1,1
1346.3,1
1277.5,1
1409.5,1
1327,1
861.99,1
733.47,1
789.6,1
859.55,1
884.8,1
844.96,1
763.73,1
814.42,1
669.65,1
522.42,1
436.87,1
370.15,1
363.8,1
352.24,1
291.26,1
341.5,1
428.61,1
452.94,1
357.58,1
266.76,1
252.09,1
146.49,1
132.44,1
177.15,1
100.59,1
218.03,1
181,1
36.344,1
13.686,1
60.602,1
84.741,1
26.154,1
16.966,0
83.76,0
81.975,0
27.74,0
19.204,0
14.67,0
28.407,0
30.034,0
30.883,0
14.899,0
8.3286,0
36.016,0
28.17,0
41.686,0
55.301,0
7.7531,0
31.866,0
5.8082,0
11.078,0
24.353,0
1.7453,0
27.417,0
29.029,0
31.136,0
12.651,0
17.41,0
40.784,0
29.121,0
68.587,0
70.635,0
103.5,0
122.17,0
141.67,0
15.727,0
30.413,0
15.8,0
107.75,0
143,0
256.56,0
160.45,0
337.78,0
596.27,1
824.54,1
970.23,1
838,1
1114.9,1
924.42,1
921.34,1
940.84,1
718.46,1
629.35,1
717.85,1
762.02,1
847.49,1
770.75,1
796.67,1
997.4,1
973.51,1
837.94,1
839.59,1
1075.6,1
1141.1,1
1200,1
968.44,1
827.77,1
1029.9,1
802.97,1
897.4,1
860.17,1
496.02,1
663.35,1
950.64,1
569.92,1
674.96,1
795.82,1
657.96,1
452.91,1
777.65,1
504.34,1
428.57,1
480.04,1
288.7,1
243.38,1
425.64,1
407,1
374.58,1
394.48,1
185.59,1
230.92,1
158.42,1
396.18,1
499.69,1
460.02,1
291.83,1
338.6,1
664.53,1
370.16,1
456.7,1
327.45,1
447.16,1
669.41,1
544.52,1
480.47,1
495.99,1
462.06,1
627.93,1
497.33,1
557.86,1
395.76,1
292.48,1
626.1,1
610.6,1
668.79,1
533.13,1
648.28,1
355.99,1
484.32,1
510.84,1
528.91,1
466.41,1
654.45,1
566.83,1
434.16,1
494.13,1
560.91,1
422.88,1
355.16,1
547.15,1
606.36,1
326.43,1
384.96,1
496.11,1
892.88,1
341.85,1
662.89,1
571.12,1
466.43,1
593,1
789.47,1
731.63,1
775.28,1
962.37,1
1099.6,1
1155.1,1
1078.1,1
1352.6,1
1313.3,1
1079.9,1
1435,1
1725.8,1
2923,1
4740.3,1
5950.8,1
5720.8,1
5874.7,1
5839,1
4830.2,1
5712.6,1
5708.1,1
5738.2,1
5585,1
5512.2,1
5617.2,1
5873.6,1
5955.5,1
5984.2,1
6330.8,1
6268.9,1
6609.4,1
6213.8,1
6321,1
5943.8,1
5840.3,1
5848.5,1
5818.3,1
5693.6,1
5713.2,1
5665,1
5415.9,1
5129.2,1
5903.5,1
5643.5,1
5222,1
4611.9,1
4238.9,1
4249.7,1
4379.3,1
4207.7,1
4121.3,1
4310.5,1
4043.6,1
4144.5,1
3683.9,1
3069.1,1
3087.9,1
2523.5,1
2395.6,1
2241.2,1
2332.4,1
1946.1,1
1666.7,1
1959.1,1
1827.6,1
1659.5,1
1479.4,1
1576.5,1
1456.1,1
1397,1
1575.8,1
1557.5,1
1478.4,1
1519.9,1
1561.6,1
2148.3,1
1731.5,1
1750,1
1523.9,1
1423.5,1
1663.5,1
1218.6,1
1090.9,1
937.37,1
882.61,1
776.42,1
590.93,1
596.47,1
629.04,1
593.41,1
1010.8,1
1024.1,1
613.67,1
591.52,1
603.84,1
437.6,1
403.53,1
369.47,1
646.89,1
602.04,1
501.33,1
467.43,1
698.8,1
760.74,1
674.61,1
494.4,1
467.81,1
653.72,1
547.66,1
356.86,1
257.9,1
317.08,1
291.85,1
329.36,1
357.26,1
337.35,1
635.28,1
538.47,1
396.4,1
328.91,1
440.91,1
438.52,1
334.76,1
427.93,1
438.56,1
474.87,1
388.65,1
501.69,1
286.31,1
246.57,1
300.65,1
390.3,1
329.14,1
339.96,1
480.92,1
455.72,1
296.14,1
268,1
369.28,1
284.19,1
228.19,1
383.82,1
239.09,1
169.31,1
241.07,1
229.66,1
258.91,1
251.71,1
193.78,1
253.22,1
298.98,1
294.82,1
42.112,0
87.311,0
133.45,0
168.1,0
257.72,0
176.99,0
72.943,0
110.63,0
87.849,0
66.84,0
74.385,0
34.352,0
176.25,0
228.84,0
59.504,0
39.017,0
61.753,0
9.2676,0
19.074,0
59.825,0
53.866,0
0.033801,0
103.83,0
73.771,0
14.859,0
12.949,0
1.169,0
0.46989,0
135.57,0
117.9,0
56.239,0
114.26,0
322.73,1
269.19,1
469.71,1
433.52,1
571.35,1
596.08,1
567.78,1
639.48,1
623.09,1
644.68,1
685.55,1
682.47,1
751.15,1
787.7,1
648.38,1
635.75,1
732.44,1
851.39,1
690.67,1
620.72,1
688,1
716.81,1
968.79,1
1435.7,1
2485.1,1
2548.1,1
3303.6,1
3618.2,1
4180.7,1
4042.4,1
4927,1
4700,1
5253.6,1
4223.7,1
3870.1,1
4118,1
4969.9,1
5413.5,1
5037.3,1
4365.6,1
5508.3,1
5804.6,1
5629.8,1
5871.5,1
6558.5,1
6361.7,1
6750.1,1
7342.7,1
6666.2,1
7445.5,1
7737.8,1
6673.9,1
5817.8,1
6449.4,1
5932.8,1
6007.5,1
6300.7,1
5829.9,1
5063.4,1
4984.2,1
4918,1
4701.5,1
4864.1,1
4799.1,1
4745.5,1
4152.8,1
3972.4,1
4404.7,1
4302,1
4329.1,1
3665.1,1
4478.3,1
3603.7,1
4199.4,1
3536.4,1
3543.1,1
3504.5,1
3414,1
3361.3,1
2910,1
3159.9,1
3322.6,1
3129.6,1
3119,1
2918.5,1
2968.2,1
3112.3,1
3017.5,1
3469.7,1
3679.3,1
3530.6,1
3633.9,1
2939.1,1
3321.3,1
2521.8,1
2252.5,1
2091.7,1
1832.7,1
1951.9,1
1923.2,1
2167.8,1
1742,1
1770.2,1
1752.3,1
1475.4,1
1217,1
1148.5,1
874.57,1
759.38,1
717.75,1
513.14,1
640.8,1
679.59,1
729.85,1
675.19,1
510.13,1
334.83,1
239.98,1
238.06,1
239.94,1
318.1,1
140.47,1
207.83,1
204.26,1
195.47,1
206.23,1
276.58,1
300.32,1
166.19,1
195.7,1
331.44,1
211.17,1
215.61,1
340.59,1
282.27,1
374.98,1
552.37,1
536.44,1
521.56,1
688.13,1
805.38,1
791.8,1
658.37,1
794.92,1
708.53,1
858.88,1
610.36,1
710.36,1
585.34,1
692.33,1
592.32,1
548.62,1
622.2,1
657.58,1
540.82,1
579.79,1
514.56,1
538.94,1
584.13,1
579.5,1
500.27,1
543.95,1
475.29,1
496.44,1
499.78,1
508.25,1
498.06,1
443.15,1
447.97,1
378.71,1
342.29,1
395.78,1
279.08,0
165.22,0
143.81,0
107.23,0
169.79,0
339.78,0
294.18,0
88.788,0
90.505,0
58.951,0
170.69,0
106.29,0
158.97,0
195.95,0
198.63,0
143.71,0
245.19,0
47.314,0
107.66,0
122.47,0
55.903,0
82.223,0
58.512,0
85.703,0
99.017,0
241.87,0
94.075,0
191.72,0
253.72,0
118.49,0
142.03,0
209.55,0
183.08,0
309.95,0
433.32,0
519.49,1
499.23,1
455.88,1
559.1,1
639.18,1
619.75,1
770.27,1
601.95,1
500.63,1
680.69,1
712.81,1
847.63,1
714.49,1
675.92,1
725.37,1
778.84,1
647.97,1
717.08,1
748.97,1
661.51,1
601.46,1
620.1,1
785.92,1
496.38,1
693.47,1
724.47,1
838.05,1
666.5,1
817.29,1
860.11,1
569.94,1
842.45,1
1310.1,1
1723.2,1
2348.9,1
2468.6,1
2378.6,1
3069.9,1
2890.1,1
3325,1
2587.9,1
2430.2,1
2954.9,1
4858.5,1
4378,1
4753.2,1
4552.2,1
4145.7,1
4340.1,1
4820.6,1
5454.5,1
4520.4,1
4274.9,1
3879.6,1
4363.2,1
3999.4,1
4241,1
3459.6,1
4238.6,1
3568.6,1
3003.5,1
3574.2,1
3298.8,1
3755.3,1
3677.3,1
3186.1,1
3024.7,1
3371.3,1
4160.7,1
3620.4,1
3448.6,1
3769.9,1
3868.1,1
3428.7,1
3798.6,1
3564,1
3683.4,1
3475.3,1
3252.3,1
2864.5,1
2265.9,1
1917.2,1
1199.6,1
1742.6,1
2178.6,1
1560.6,1
1996.9,1
1767.7,1
1438.5,1
1468.7,1
1542.4,1
1687.9,1
1575.8,1
2122.1,1
1510.1,1
1448.7,1
1468.5,1
1969.2,1
1823.6,1
1611.6,1
1590.9,1
1954.4,1
2483.9,1
2170.2,1
1852.4,1
1455.3,1
1510.7,1
1959.2,1
2011.9,1
1494.1,1
1780.9,1
2382.4,1
1362.3,1
2214,1
1576.9,1
1374.9,1
2111,1
2542.3,1
1285.6,1
1165.4,1
1654.1,1
1301.8,1
1727.1,1
1518.3,1
2090.3,1
1056.8,1
1720.1,1
1009.8,1
857.94,1
746.24,1
734.84,1
877.79,1
556.38,1
478.42,1
607.2,1
690.27,1
528.75,1
583.93,1
677.37,1
755.09,1
568.5,1
453.29,1
436.31,1
601.06,1
415.3,1
272.61,1
333.24,1
251.06,1
358.11,1
146.61,1
189.14,0
186.56,0
126.47,0
195.71,0
166.12,0
154.67,0
92.467,0
244.78,0
114.34,0
135.61,0
251.45,0
173.75,0
210.43,0
149.28,0
234.91,0
218.17,0
191.79,0
108.8,0
151.78,0
204.2,0
124.01,0
178.29,0
301.9,0
182.68,0
196.4,0
160.68,0
138.58,0
126.31,0
149.11,0
190.28,0
130.55,0
241.54,0
232.79,0
123.67,0
109.37,0
11.191,0
158.97,0
209.95,0
68.286,0
116.46,0
178.83,0
158.14,0
65.687,0
196.83,0
65.219,0
154.63,0
100.68,0
175.56,0
79.977,0
176.63,0
203.12,0
193.35,0
128.05,0
190.64,0
35.396,0
188.68,0
145.4,0
25.694,0
179.39,0
428.06,0
376.83,1
459.69,1
590.2,1
699.55,1
451.65,1
463.37,1
375.93,1
334.62,1
505.31,1
413.92,1
517.89,1
515.48,1
525.37,1
456.07,1
413.11,1
557.96,1
618.46,1
649.39,1
783.06,1
738.81,1
818.75,1
854.39,1
815.46,1
912.19,1
751.89,1
842.31,1
777.97,1
664.79,1
801.89,1
789,1
1063.8,1
838.46,1
830.27,1
843.79,1
1122.8,1
908.42,1
1101.5,1
1251.1,1
2239.2,1
2819.3,1
2227.2,1
3074.4,1
4188.2,1
4599.1,1
4198,1
3180.3,1
4429.6,1
4301.2,1
4466.7,1
3961.5,1
3247.9,1
3598.5,1
3046.5,1
3200.4,1
2835.2,1
3112.6,1
3309.9,1
4166.3,1
4930.1,1
4062.2,1
4073.5,1
4530.7,1
3204.5,1
3776.4,1
2937.6,1
3002.7,1
2204,1
2078.1,1
2032.5,1
2009.5,1
2195.6,1
1510.3,1
1248.8,1
1301.3,1
1499.6,1
1484.2,1
1548.3,1
1695.5,1
1848.6,1
1797.7,1
1617.5,1
1450.8,1
1585.2,1
1238.5,1
965.7,1
948.81,1
803.26,1
757.77,1
1036.4,1
930.06,1
887.63,1
888.04,1
748.7,1
621.12,1
646,1
527.21,1
352.75,1
373.67,1
540.79,1
714.62,1
485.22,1
492.22,1
569.39,1
496.84,1
279.2,1
278.28,1
394.93,1
173.84,1
216.82,1
269.47,1
150.71,1
125.32,1
209.58,1
111.17,1
122.43,1
94.378,1
26.09,0
149.34,0
122.07,0
146.58,0
143.45,0
108.46,0
81.489,0
99.519,0
54.402,0
105.69,0
63.521,0
100,0
162.35,0
103.07,0
86.429,0
27.908,0
28.229,0
108.54,0
4.8844,0
75.587,0
192.88,0
93.992,0
146.2,0
81.047,0
142.02,0
3.9975,0
94.061,0
36.389,0
54.453,0
37.355,0
534.08,0
423.69,0
435.27,0
280.05,0
221.98,0
458.96,1
754.3,1
835.71,1
1010.2,1
1237.1,1
1814.3,1
2308.6,1
2692,1
2645.2,1
2664,1
2949.2,1
3040.3,1
3113.6,1
3111.8,1
3018.5,1
2848,1
2229.8,1
1207,1
995.68,1
1113.5,1
885.74,1
1105.3,1
813.26,1
771.43,1
953.01,1
1001.5,1
1219.3,1
1190.1,1
1714.2,1
1598.2,1
1781.9,1
2162.6,1
2630.8,1
2914.2,1
2626.8,1
2163.6,1
1781.8,1
1273.3,1
2004.2,1
2061.2,1
1595.2,1
1313.7,1
1235.7,1
1535.5,1
1250.9,1
1618.5,1
1263.7,1
1051.2,1
824.63,1
858.86,1
934.15,1
456.12,1
400.98,1
473.87,1
543.95,1
383.13,1
288.39,1
247.24,0
310.68,0
452.11,0
225.11,0
549.75,0
1298,0
1911.3,0
2577.3,0
2663.4,0
2871.2,0
3052.1,0
3184.1,0
3259.4,0
2075.8,0
2210,0
2791.1,1
1930,1
2714.5,1
2762,1
1935.2,1
1201.2,1
1073.1,1
1151.5,1
1178.7,1
1175.2,1
1112.9,1
1115.8,1
1143.1,1
1093.1,1
1237,1
1510.5,1
1949.2,1
1836.6,1
1093.8,1
855.98,1
1189.2,1
1168.6,1
1231.2,1
800.8,1
1093,1
1337,1
1009.6,1
1289.6,1
1940.7,1
1883.5,1
2284.1,1
2641.6,1
2083.1,1
1906.4,1
2408.1,1
2549.3,1
2504,1
2196.5,1
1711.2,1
1688.4,1
1872.3,1
1858.9,1
1617.1,1
856.87,1
792.53,1
439.64,0
206.02,0
292.2,0
259.35,0
202.78,0
301.42,0
254.27,0
360.76,0
280.71,0
397.61,0
259.84,0
346.23,0
391.76,0
511.54,0
578.9,0
718.19,0
623.44,0
356.48,0
352.44,0
453.34,0
425.24,0
566.85,1
758,1
764.38,1
997.9,1
864.48,1
986.49,1
1162.3,1
1160.9,1
1294.9,1
1081.5,1
1136.1,1
1254.5,1
1774.6,1
1963.6,1
1754.2,1
2008.6,1
2564,1
2532.8,1
3002.6,1
3124,1
3905.4,1
3827,1
3932.3,1
4914,1
3808.1,1
4734.8,1
6034.6,1
5722.3,1
9353.2,1
8618.3,1
8433.6,1
8804.3,1
8225.4,1
8298.9,1
5382.8,1
4873.7,1
5089,1
4073.5,1
3649.3,1
1928.9,1
2159.3,1
2004.8,1
1122.7,1
1442.2,1
1283.3,1
1739.1,0
1960.4,0
3224.3,0
2365.8,0
1909.2,0
1968.7,0
1881.8,0
1017.2,0
567.96,0
1102.5,0
639.51,0
632.9,0
527.02,0
352.58,0
287.98,0
267.4,0
323.99,0
922.27,1
1662.3,1
1844.7,1
1807.2,1
1617,1
1554.1,1
1722.8,1
2327.4,1
2791,1
2977.9,1
2974.8,1
3205.6,1
3354.7,1
3514.6,1
3636.2,1
3759.5,1
3687.5,1
3384.5,1
3052.7,1
2992.3,1
2707.6,1
2521.2,1
2384.2,1
2823,1
2936.8,1
3189.2,1
3394.1,1
3230.4,1
3225.7,1
3478.2,1
4647.5,1
5421.3,1
4448.9,1
3619.5,1
3735.8,1
4128.6,1
4250.1,1
3835.3,1
2390.5,1
2608.3,1
2326.5,1
2818.3,1
3157.5,1
1612.8,1
917.03,1
679.76,1
773.41,1
772.69,1
722.44,1
820.49,1
935.95,1
932.48,1
573.38,1
750.52,0
703.38,0
1046.5,0
1111.8,0
1623.8,0
2670.5,0
2824.3,0
2378.2,0
1130,0
1012.7,0
1034.5,0
1102.2,0
814.76,0
851.67,1
993.88,1
1898.1,1
2170.1,1
2423.5,1
1655.1,1
1234.7,1
1547.7,1
1849.6,1
2044.9,1
1756.7,1
2555.2,1
3088.3,1
3117,1
3333.4,1
4333.3,1
4944.4,1
4686.7,1
4186.6,1
3290.8,1
2532.5,1
2637.2,1
3059.3,1
4100.5,1
4627.5,1
5827.9,1
5407.3,1
6584.2,1
5576.4,1
4393.7,1
3023.4,1
3870.8,1
4527.9,1
4658,1
3872.9,1
2928.1,1
2087.4,1
1783.5,1
1461.6,1
531.83,1
187.38,1
92.928,1
113.25,1
216.49,1
184.69,1
230,1
425.68,0
428.51,0
320.59,0
378.05,0
377.76,0
220.58,0
312.64,0
150.34,0
246.96,0
135.65,0
154.49,0
109.89,0
52.387,0
177.72,1
340.19,1
715,1
1006,1
1344.6,1
1377.9,1
1476,1
1261.5,1
1366.4,1
1630.1,1
1569.4,1
1805.8,1
2247.7,1
2579.7,1
3172.5,1
3576.8,1
3781.7,1
4002.5,1
4096.4,1
3355.7,1
3095.6,1
2648.8,1
2674.4,1
2600.1,1
3151,1
3594,1
4097.4,1
4523.1,1
5207.2,1
4836.4,1
3780.6,1
3831.1,1
3159.4,1
3159.6,1
3033.7,1
3003.5,1
3288,1
3930.1,1
4725.4,1
4265.5,1
3577.9,1
2965.3,1
2224.2,1
2414.8,1
1267.1,1
634.07,1
649.65,1
376.89,1
218.4,1
232.68,1
170.94,1
209.32,0
177.61,0
182.94,0
31.655,0
142.5,0
151.28,0
451.06,0
718.11,0
337.96,0
508.42,0
497.05,0
611.17,0
456.27,0
381.89,0
259.91,0
850.99,1
1547.2,1
2325,1
2097.9,1
1795.3,1
1979,1
1687.4,1
1928.4,1
2533.8,1
2813.4,1
2688.3,1
3158.2,1
3314.1,1
3718.1,1
3502.7,1
2556.7,1
2409.8,1
1952.5,1
1964.1,1
1927.4,1
1971.6,1
2475.9,1
3036.2,1
2899.7,1
3030.9,1
3199.9,1
2683,1
2860.4,1
3923.5,1
4491.8,1
4100.2,1
4248.6,1
4149,1
4930.6,1
4870.9,1
4817.9,1
4119.8,1
4114.4,1
3420.3,1
2709.6,1
2084.1,1
1813.3,1
1475.3,1
803.36,1
1174,1
827.67,1
504.24,1
536.93,1
578.08,0
205.21,0
320.84,0
740.03,0
687.5,0
721.66,0
849.13,0
813.89,0
764.64,0
889.03,0
516.68,0
761.38,0
1108.7,0
839.98,0
632.42,0
782.66,0
1175.7,0
1887.4,1
2028.5,1
1608.8,1
1124.3,1
1763.6,1
1844.2,1
1976.5,1
2950.4,1
3357.5,1
2916.8,1
3152.9,1
3352.9,1
3930.8,1
2701.9,1
3070,1
2725.1,1
2576.9,1
1610.2,1
1703.8,1
1446.5,1
1896.1,1
1508.5,1
1844.3,1
3517.5,1
2699.1,1
2673.6,1
2181.5,1
2148.8,1
2910.4,1
4193.9,1
3895.8,1
3819.4,1
3443.1,1
4601.3,1
5260.9,1
5770.2,1
5707.1,1
5995.3,1
6517.6,1
5164,1
5900.4,1
5116.7,1
4552.3,1
1773.9,1
1101.4,1
1587.2,1
1306.7,1
800.24,1
549.07,1
322.75,1
166.36,1
105.52,1
131.4,1
213.43,1
289.17,0
244.32,0
135.34,0
149.63,0
106.57,0
129.71,0
198.87,0
327.61,0
730.5,0
493.15,0
508.54,0
516.4,0
412.29,0
398.29,0
421.71,1
1124.9,1
1658.4,1
1673.1,1
1768.5,1
2059,1
1942.4,1
2223.3,1
2186.6,1
1922.5,1
2072.6,1
2191,1
2446.6,1
2643.5,1
3034.2,1
3634.6,1
4000.3,1
4604.7,1
4264.1,1
4126.9,1
4581.6,1
4333.1,1
4341.8,1
5216.1,1
5083.7,1
4975.5,1
5096.9,1
6210.6,1
7143.9,1
6371.8,1
4270.4,1
4006.3,1
3703.8,1
3559.3,1
3564.2,1
3433,1
3162,1
2097.3,1
1361.3,1
942.61,1
659.52,1
441.98,1
549.3,1
902.16,1
1015.4,1
1095,1
745.69,1
827.8,0
964.38,0
752.59,0
731.53,0
597.13,0
821.56,0
909.77,0
727.47,0
546.43,0
652.82,0
572.36,0
1064.2,1
1721.4,1
2188.5,1
2749.4,1
2455.9,1
2358,1
2110.1,1
2346.1,1
2335.9,1
2291.5,1
1865,1
2233.8,1
2153.4,1
2513.9,1
2894.6,1
3205.9,1
3582.2,1
4058.2,1
4327.8,1
5762.1,1
5958.7,1
4791.3,1
5030.1,1
4777,1
5343.4,1
4714.9,1
4998.6,1
5279.1,1
5931.4,1
5093.7,1
6444.2,1
6953.3,1
5225.2,1
3437.4,1
3284.5,1
2495.7,1
1211.1,1
1097.5,1
635.04,1
599.57,1
702.1,1
699.11,1
440.65,1
565.25,0
696.83,0
430.03,0
272.82,0
268.82,0
424.99,1
3019.4,1
2438.2,1
2689.6,1
3307.7,1
3466.4,1
2298.2,1
2515.1,1
2271.7,1
2053.6,1
2175.6,1
2654.8,1
2106.7,1
3575.9,1
2136.9,1
1999.8,1
1844.8,1
2110.7,1
2420.3,1
2916.4,1
3144.9,1
2970.9,1
2850.8,1
2043.8,1
1560.8,1
1142,1
885.95,1
677.5,1
1099.2,1
2474.1,0
1939.5,0
1101.8,0
1019.7,0
908.65,0
941.03,0
348.44,0
679.96,0
815.43,0
694.25,0
1045.2,0
8.4343,0
31.466,0
44.235,0
50.011,0
10.338,0
39.25,1
169.05,1
263.49,1
279.41,1
375.79,1
451.5,1
685.7,1
653.21,1
634.17,1
731.14,1
678.48,1
644.63,1
606.48,1
595.72,1
517.61,1
598.18,1
545.52,1
507.53,1
526.43,1
421.63,1
432.49,1
335.44,1
411.5,1
456.28,1
457.03,1
572.8,1
502.68,1
627.69,1
669.6,1
879.85,1
1022.7,1
1025.8,1
1002.5,1
1039.1,1
943.07,1
934.47,1
724.62,1
835.07,1
993.98,1
880.31,1
884.34,1
740.88,1
765.13,1
920.74,1
704.52,1
692.72,1
708.02,1
598.42,1
611.31,1
725.58,1
611.44,1
278.42,1
7.7536,1
28.904,1
1.9419,1
58.416,1
43.106,1
54.321,0
50.633,0
40.905,0
0.9681,0
2.6366,0
23.166,0
25.482,0
14.082,0
13.464,0
13.673,0
45.306,0
55.582,0
30.633,0
7.457,0
38.312,0
72.289,1
218.65,1
399.08,1
423.8,1
454.98,1
501.55,1
511.54,1
432.64,1
526.14,1
518.99,1
509.47,1
596.04,1
531.39,1
474.58,1
603.51,1
547.92,1
576.18,1
460.9,1
333.14,1
350.17,1
383.79,1
379.71,1
361.92,1
447.79,1
407.9,1
526.72,1
521.63,1
653.71,1
787.65,1
1076.9,1
1207.9,1
1329.9,1
1048.9,1
1190.9,1
1472.6,1
1886.2,1
1954,1
1677.6,1
1282.8,1
1372.6,1
1371.2,1
1248.1,1
918.44,1
334.92,1
5.5822,1
2.7544,0
40.228,0
11.633,0
23.528,0
16.215,0
23.223,0
52.141,0
24.696,0
15.56,0
36.94,0
63.01,0
53.139,0
32.23,0
46.615,0
45.831,0
50.789,0
30.18,0
39.092,0
23.402,0
44.313,0
99.481,0
481.4,1
447.79,1
562.25,1
649.3,1
630.7,1
725.81,1
823.62,1
798.57,1
763.88,1
786.21,1
791.11,1
973.31,1
1308.6,1
1452.3,1
1033.3,1
1354.1,1
1526.1,1
1701.5,1
1853.3,1
2088.3,1
2649,1
2617.2,1
2695.7,1
3397.2,1
2715.2,1
2089.6,1
1974.7,1
2165.1,1
2414.1,1
2431.8,1
2419.9,1
2677.5,1
4023.9,1
3409.8,1
1680,1
1458.2,1
1531.6,1
883.66,1
341.81,1
1.115,1
55.937,1
92.309,1
63.22,1
15.908,1
75.662,1
8.6316,0
27.367,0
31.807,0
29.113,0
13.505,0
56.464,0
41.223,0
11.988,0
37.215,0
7.1258,0
22.408,0
10.936,0
27.113,0
136.07,0
11.2,0
4.3458,0
87.968,0
671.39,1
1078.8,1
1250.1,1
1310.3,1
1073.2,1
1136.8,1
1358.2,1
1901,1
2417.8,1
2568.6,1
2662.8,1
2936.9,1
3087.8,1
3244.8,1
3382.4,1
3305.5,1
3171.3,1
2799.7,1
2312.9,1
2337.4,1
1970.7,1
1955.1,1
1889.5,1
1989,1
2124.4,1
2422,1
2521.4,1
2255.1,1
2199.7,1
2352.9,1
3597,1
4422.8,1
3672.8,1
2736.9,1
3013.4,1
3229.4,1
3237.5,1
2668.8,1
1589.4,1
1620.8,1
1586.2,1
2121.5,1
1951.5,1
777.11,1
311.19,1
6.954,1
16.718,1
6.7862,1
94.452,1
43.026,1
29.706,1
14.611,1
67.228,1
61.012,0
233.77,0
165.48,0
168.73,0
276.44,0
225,0
202.37,0
173.99,0
211.76,0
104.46,0
50.871,0
3.1194,0
16.607,0
10.478,1
304.82,1
706.68,1
957.06,1
877.54,1
857.08,1
882.8,1
697.84,1
680.26,1
787.49,1
1046.3,1
1018.8,1
1444.6,1
1843.3,1
2570.8,1
3240,1
3669.8,1
3574,1
3004.2,1
1989.3,1
1920.5,1
1656,1
2176.2,1
2906.3,1
3369.7,1
4498.7,1
4227.5,1
4971,1
4529.8,1
3301.9,1
2210.7,1
3074,1
3797.3,1
3771.7,1
3029.8,1
2178.4,1
1621.6,1
1236.8,1
919.09,1
484.56,1
38.279,1
73.85,1
25.01,1
22.379,1
2.1928,1
23.624,1
9.45,0
8.4288,0
1.1956,0
32.13,0
8.0946,0
2.7829,0
13.96,0
36.975,0
11.073,0
31.339,0
18.819,0
19.312,0
0.70936,0
13.186,1
44.521,1
288.54,1
552.43,1
863.44,1
936.13,1
820.47,1
802.56,1
897.03,1
1010.5,1
1100.3,1
1263.1,1
1599.3,1
2033.6,1
2425.9,1
2928.7,1
3299.6,1
3621.5,1
3407.8,1
2733.9,1
2249.5,1
1940.1,1
1788,1
1804,1
2097.7,1
2480.1,1
2690.6,1
3366.2,1
3861.6,1
3418,1
2707.5,1
2560.5,1
2166.7,1
2236.1,1
2354.2,1
2216.6,1
2370.9,1
2858.3,1
2902.3,1
2227.8,1
1854.2,1
1286.6,1
1206.2,1
1281.3,1
502.35,1
160.16,1
73.58,1
53.313,1
3.8039,1
10.948,1
6.6543,1
30.874,0
4.9036,0
38.282,0
31.239,0
55.732,0
42.746,0
9.9618,0
62.813,0
56.503,0
18.469,0
58.244,0
27.033,0
41.974,0
46.27,0
67.987,0
414.79,1
1044,1
1503.2,1
1293.3,1
1016.7,1
1037.3,1
1052.3,1
1090.4,1
1415.7,1
1777.6,1
2114.5,1
2428.8,1
2390.6,1
2489.7,1
2537.1,1
1612.3,1
1372.6,1
1255.7,1
1158.8,1
1193.4,1
1260.8,1
1718.1,1
1975.5,1
1823.8,1
1888.8,1
2496.5,1
2014.1,1
2065.8,1
3085.5,1
3588.6,1
3421.1,1
3203.3,1
3427.5,1
3533.9,1
3612.4,1
3518.6,1
3237.1,1
2790.3,1
2218.3,1
1835.1,1
1229,1
794.14,1
527.77,1
194.24,1
0.38628,1
37.239,1
45.095,1
40.606,1
38.679,0
67.903,0
12.959,0
35.143,0
24.581,0
17.475,0
13.562,0
24.76,0
153.04,0
91.505,0
37.249,0
19.765,0
59.836,0
1.6671,0
43.054,0
17.22,0
149.65,0
592.15,1
745.52,1
709.76,1
638.57,1
667.69,1
652.74,1
614.04,1
771.36,1
736.11,1
840.3,1
834.44,1
912.47,1
939.76,1
903.88,1
884.91,1
903.42,1
661.88,1
687.46,1
808.29,1
823.18,1
760.59,1
727.63,1
1077.6,1
1393.9,1
1009.7,1
1216.8,1
876.91,1
1366.3,1
1111.3,1
1929,1
1656.4,1
2111.1,1
2160.3,1
3287.4,1
3410.2,1
4474.1,1
4210.4,1
4728.4,1
5332.5,1
4078.9,1
4645.1,1
4040.7,1
3526,1
904.55,1
701.24,1
709.53,1
709.34,1
437.58,1
112.92,1
26.596,1
29.802,1
8.6299,1
44.921,1
2.3815,1
9.8632,0
42.563,0
60.823,0
1.0107,0
1.6134,0
32.543,0
5.4639,0
5.1378,0
17.234,0
2.2051,0
111.19,0
42.814,0
36.556,0
31.024,0
19.892,1
510.18,1
998.32,1
1103.7,1
1131.1,1
1224.4,1
1183.8,1
1259,1
1182.7,1
1200.3,1
1298.1,1
1428,1
1671.2,1
1983.3,1
2159.9,1
2665.9,1
2898.1,1
3125.2,1
2815.4,1
2615.2,1
2808.2,1
3011.2,1
2990.5,1
3776.4,1
3742.3,1
3941.1,1
3864.5,1
5103.2,1
5942.4,1
5272.9,1
3393.7,1
2815.1,1
2815.3,1
2828.4,1
2723.8,1
1899,1
1629,1
1464.5,1
653.11,1
201.17,1
37.071,1
71.601,1
20.655,1
173.34,1
101.7,1
52.836,1
11.308,1
10.296,0
135.52,0
21.738,0
72.019,0
17.297,0
66.953,0
16.879,0
37.233,0
39.027,0
54.609,0
43.908,0
466.52,1
907.33,1
1092.1,1
1168.3,1
1146.6,1
1162.4,1
1359.6,1
1443.5,1
1373.6,1
1470.6,1
1415.6,1
1478.3,1
1443.7,1
1845.3,1
2213.4,1
2489.1,1
2704.5,1
3312.9,1
3339.6,1
4646.6,1
4777.9,1
3766.5,1
3739.2,1
3719,1
4081.9,1
3558.1,1
3467.5,1
3973.6,1
5026.5,1
4179.9,1
5246.7,1
5544.6,1
3855.3,1
2408.6,1
2018.6,1
1471.9,1
529.19,1
510.02,1
213.44,1
73.331,1
73.008,1
20.694,1
4.806,1
45.151,0
90.885,0
16.64,0
56.274,0
58.241,0
295.18,1
2342.7,1
1662.7,1
1874.4,1
2072.3,1
1852.5,1
1554.3,1
1779.8,1
1384.3,1
1172.5,1
1614.4,1
1756.7,1
1489.5,1
2668.5,1
1479.1,1
1256.5,1
1145.8,1
1320.8,1
1747.2,1
2030.7,1
2215.5,1
2208.8,1
1734.7,1
1339.3,1
1162.1,1
807.65,1
279.23,1
85.671,1
3.4967,1
32.609,0
17.004,0
5.0219,0
63.388,0
14.432,0
18.366,0
22.914,0
0.15339,0
25.188,0
73.741,0
5.1156,0
64.848,0
81.485,0
98.368,0
6.2994,0
43.366,0
21.325,1
293.91,1
332.69,1
428.83,1
436.46,1
455.19,1
690.32,1
640.43,1
810.76,1
747.16,1
704.71,1
676.65,1
641.96,1
711.54,1
713.05,1
629.56,1
645.37,1
635.81,1
806.26,1
513.53,1
700.19,1
551.19,1
604.68,1
638.56,1
783.59,1
949.16,1
826.24,1
861.29,1
797.46,1
846.88,1
1342.7,1
1226.8,1
1352.6,1
1268.4,1
1110.1,1
823.91,1
1020.2,1
963.77,1
1119.4,1
1088.2,1
902.57,1
882.79,1
1093.1,1
994.29,1
842.73,1
776.77,1
828.83,1
681.9,1
691.98,1
645.07,1
715.72,1
421.6,1
71.672,1
113.31,1
94.955,1
270.43,1
333,1
368.48,0
220.83,0
215.16,0
405.75,0
204.54,0
278.04,0
164.18,0
248.42,0
389.81,0
345.44,0
200.23,0
264.74,0
309.76,0
270,0
253.73,0
381.16,1
380.27,1
410.33,1
680.08,1
675.64,1
786.46,1
723.23,1
605.64,1
663.46,1
532.67,1
543.82,1
670.66,1
643.71,1
719.6,1
626.44,1
601.98,1
767.78,1
515.24,1
418.39,1
432.65,1
516.67,1
517.51,1
351.92,1
475.98,1
679.51,1
1044.2,1
854.46,1
1107,1
1095.5,1
1325.3,1
1559.9,1
1656.3,1
1437.1,1
1467.1,1
1707.2,1
2053.4,1
2095.6,1
1853.1,1
1464.2,1
1561.8,1
1382.2,1
1255.8,1
1106.8,1
425.61,1
186.06,1
130.46,0
96.982,0
59.277,0
75.579,0
9.5663,0
124.31,0
73.987,0
104.55,0
29.068,0
57.51,0
127.14,0
155.06,0
44.046,0
9.2798,0
64.039,0
55.77,0
29.54,0
29.468,0
117.96,0
234.07,0
228.87,0
424.74,1
662.43,1
693.49,1
762.87,1
859.6,1
856.9,1
899.53,1
1017.5,1
1000.6,1
1011.2,1
932.81,1
1129.8,1
1535.7,1
1567.6,1
1212,1
1428.1,1
1758.3,1
1709.3,1
2011,1
2280.8,1
2721.9,1
2671.5,1
2769.4,1
3273.6,1
2773.3,1
2204.3,1
2033.6,1
2237.6,1
2518.7,1
2698.1,1
2433.5,1
2816.1,1
3995.4,1
3604,1
1700.2,1
1566.8,1
1840.6,1
1074.2,1
494.54,1
329.54,1
714.82,1
524.87,1
554.97,1
234.51,1
411.42,1
567.59,0
214.06,0
142.28,0
206.07,0
224.87,0
226.8,0
176.21,0
175.82,0
209.59,0
197.61,0
621.79,0
579.55,0
269.04,0
231.22,0
287.41,0
108.96,0
78.804,0
581.43,1
1371.3,1
1525.1,1
1457.3,1
1271.2,1
1494.4,1
1720.9,1
2235.9,1
2657,1
2773.6,1
2894.6,1
3188.8,1
3135.5,1
3238.3,1
3338.3,1
3367.1,1
3255.3,1
3001.6,1
2516.8,1
2734.5,1
2226.9,1
2087.9,1
2013.3,1
2268.6,1
2388.2,1
2585.2,1
2813.3,1
2511.9,1
2545.5,1
2649.2,1
3800.7,1
4536,1
3742.8,1
2995,1
3272.4,1
3381.1,1
3469.6,1
2791.4,1
1944.4,1
1639.8,1
1599,1
2241.7,1
1968,1
660.57,1
448.49,1
54.742,1
53.788,1
65.123,1
77.539,1
77.538,1
87.681,1
20.883,1
48.608,1
59.373,0
45.459,0
8.3058,0
51.251,0
89.133,0
120.93,0
197.72,0
138.81,0
40.256,0
85.371,0
60.551,0
41.9,0
51.304,0
56.316,1
366.1,1
817.29,1
952.45,1
870.53,1
832.41,1
743.86,1
801.64,1
775.29,1
857.01,1
915.17,1
1136.8,1
1331.5,1
1892.4,1
2544.2,1
3215.2,1
3552.3,1
3619.9,1
3119.2,1
2097.6,1
1639.3,1
1802.4,1
2132.2,1
3009.1,1
3359.2,1
4559,1
4342.9,1
4948.6,1
4543.9,1
3347.7,1
2234.3,1
3145,1
3733.2,1
3832.5,1
3050.6,1
2331.1,1
1567.4,1
1453.8,1
1099.5,1
368.5,1
60.767,1
49.085,1
9.7657,1
48.744,1
63.86,1
6.2557,1
14.669,0
105.97,0
59.518,0
3.0976,0
42.376,0
4.831,0
36.736,0
42.925,0
58.701,0
113.07,0
41.464,0
52.281,0
43.375,0
47.013,1
8.8146,1
325.54,1
613.89,1
940.71,1
1013.4,1
965.73,1
979.94,1
1035.3,1
1067.6,1
1153.7,1
1409.7,1
1778,1
2268.4,1
2619.8,1
3258.2,1
3495.6,1
3758.1,1
3691,1
3010.5,1
2499.6,1
1983.4,1
2082,1
1752.8,1
2138.4,1
2529.2,1
2885.6,1
3449.8,1
3929.6,1
3642.5,1
2760.4,1
2657.7,1
2234.2,1
2303.7,1
2399.3,1
2337,1
2537.5,1
2975.4,1
3068.1,1
2348.9,1
1859.7,1
1373.5,1
1180.4,1
1519.7,1
623.26,1
340.77,1
53.88,1
63.725,1
57.567,1
143.65,1
143.8,1
277.84,0
83.126,0
129.95,0
180.16,0
121.33,0
102.16,0
133.8,0
157.25,0
143.85,0
71.91,0
95.226,0
170.55,0
206.33,0
175.42,0
84.276,0
584.14,1
1151.8,1
1763,1
1435.3,1
1046.3,1
1132.4,1
1018,1
1279.8,1
1492.7,1
1853.2,1
2297.3,1
2380.7,1
2403.3,1
2574.5,1
2607.9,1
1684.9,1
1605.7,1
1265.7,1
1274.7,1
1354.4,1
1354.3,1
1759.3,1
2048.5,1
1995.8,1
1985.1,1
2589.4,1
2178.1,1
2101.6,1
3078.9,1
3637,1
3453.7,1
3319.1,1
3630.8,1
3555.6,1
3593,1
3553,1
3397.4,1
2918.1,1
2321,1
1864.6,1
1269.7,1
920.76,1
513.73,1
149.57,1
10.004,1
46.273,1
28.586,1
30.512,1
75.969,0
142.47,0
41.799,0
140.23,0
46.237,0
71.53,0
118.65,0
68.371,0
33.805,0
67.387,0
86.693,0
53.792,0
5.8947,0
7.4505,0
64.511,0
58.133,0
191.42,0
782.21,1
757.85,1
727.56,1
730.52,1
782.36,1
662.65,1
718.16,1
861.04,1
1042,1
1084.7,1
1003.1,1
1000.6,1
880.05,1
990.72,1
863.38,1
835.44,1
916.68,1
898.44,1
868.92,1
926.26,1
820.79,1
896,1
1186.9,1
1428.4,1
1058.2,1
1342.1,1
975.04,1
1247.8,1
1328.2,1
1998.9,1
1846,1
2418.1,1
2131,1
3461,1
3414.7,1
4494.8,1
4416.4,1
4953.3,1
5511.2,1
3955.7,1
4730.4,1
4188,1
3538.1,1
1044.8,1
863.14,1
831.64,1
791.36,1
617.88,1
262.6,1
258,1
148.87,1
94.898,1
183.61,1
349.79,1
179.29,0
171.91,0
189.45,0
149.7,0
150.5,0
166.48,0
187.87,0
155.36,0
173.15,0
184.28,0
202.33,0
238.7,0
221.37,0
204.05,0
239.55,1
664.28,1
1069.3,1
1253.4,1
1132.8,1
1225,1
1253.5,1
1304,1
1385,1
1348.2,1
1429.5,1
1687.6,1
1831.8,1
2093.8,1
2230,1
2836,1
2989.7,1
3074.7,1
2953.3,1
2669.9,1
2738.6,1
3040.7,1
3250.5,1
3859,1
3930.3,1
4082.5,1
4162.9,1
5263.2,1
5834.4,1
5205.2,1
3370.2,1
2813.6,1
2521,1
2573.7,1
2532.8,1
1881.5,1
1684.4,1
1329.4,1
843.28,1
200.36,1
113,1
101.45,1
129.22,1
131.73,1
205.89,1
163.85,1
237.12,1
157.54,0
206.69,0
188.71,0
67.023,0
47.419,0
71.627,0
76.754,0
62.368,0
74.595,0
74.91,0
148.83,0
495.32,1
958.43,1
1073.9,1
1196.2,1
1131.5,1
1322.6,1
1579.8,1
1603.6,1
1379.8,1
1534.2,1
1530.4,1
1564.8,1
1656.2,1
2023.9,1
2408.6,1
2662.4,1
2827,1
3289.6,1
3604.2,1
4770.2,1
4913.6,1
3752.9,1
3877.6,1
3882.5,1
4055.4,1
3728.1,1
3542.3,1
4064.6,1
5031.3,1
4412.8,1
5280.8,1
5643,1
4004.7,1
2673.3,1
2241.1,1
1616.7,1
799.52,1
481.88,1
257.06,1
296.09,1
146.46,1
119.6,1
125.48,1
183.97,0
154.88,0
153.86,0
104.82,0
108.91,0
255.1,1
2411.7,1
1894.6,1
2176.5,1
2214.6,1
1893.1,1
1649.6,1
2003.5,1
1594.2,1
1211.2,1
1728.5,1
1777.5,1
1661.7,1
2763.8,1
1596.2,1
1400.7,1
1149.5,1
1460.6,1
1830.3,1
2239.6,1
2359.9,1
2389.9,1
1858.5,1
1351.6,1
1178.7,1
805.33,1
463.79,1
189.71,1
179.62,1
156.21,0
133.2,0
69.977,0
86.964,0
141.33,0
73.656,0
125.37,0
232.14,0
135.79,0
144.06,0
114.62,0
548.31,0
436.11,0
447.75,0
288.59,0
231.01,0
406.23,0
452.73,0
524.66,0
638.32,0
745.01,0
1306,0
1534,0
1853,0
2073.4,0
2108.2,0
2434.5,0
2348.1,0
2486.6,0
2704.3,0
2618.6,0
2422.6,1
2229.9,1
1343.3,1
1162.6,1
1568.3,1
1633.6,1
1739.3,1
2019.2,1
1970.8,1
1958,1
1924.6,1
2374.2,1
2142.4,1
2506.5,1
2125.2,1
1818.9,1
2285.4,1
2999.1,1
3198.8,1
3140.1,1
3135.8,1
2441.9,1
2123.5,1
2847.1,1
2713.8,1
2459.8,1
2055.3,1
1831.2,1
1866.2,1
1937.9,1
2266.6,1
2138.3,1
1939.5,1
2215.7,1
2057.1,1
1923,1
1667.6,1
1833.2,1
1721.3,1
1413.3,1
1297.9,1
1344.9,1
1077.6,1
1337.5,1
1624.5,1
1252.1,1
1651.7,1
2120.6,1
3110.2,1
3211.1,1
3941,1
3665,1
4076.3,1
4201.7,1
3967.9,1
3390.2,1
3281.3,1
3377.5,1
2040.9,1
2774.4,1
2614.7,1
2163.5,1
998.12,1
893.65,1
1234.4,1
797.22,1
851.49,1
731.5,1
649.24,1
750.92,1
829.62,1
788.89,1
1317,1
1446.1,1
1781.9,1
940.51,1
950.77,1
942.64,1
1002.9,1
1418.6,1
1089.1,1
1132.7,1
1134.2,1
687.78,1
1030.2,1
1098.2,1
1187.3,1
1168.8,1
1005.5,1
984.09,1
656.98,1
593.65,1
384.13,1
428.04,1
482.05,1
175.61,0
267.37,0
352.69,0
397.28,0
391.16,0
570.86,0
756.92,0
448.24,0
209.26,0
452.49,0
506.65,1
453.71,1
559.8,1
534.92,1
609.38,1
646,1
743.9,1
607.92,1
675.53,1
691.28,1
815.87,1
966.12,1
1024.7,1
775.43,1
683.61,1
726.05,1
1002.8,1
794.07,1
937.13,1
1006.9,1
1049.5,1
1071.3,1
1117.9,1
1146.8,1
1181.8,1
1337.1,1
1707.8,1
1673.4,1
1812.9,1
1769.8,1
1848.9,1
1970.2,1
2360.1,1
2365.3,1
2082.8,1
2127.2,1
2123,1
2106.2,1
2201.2,1
2314.4,1
2145.9,1
1787.5,1
1429.3,1
3600.8,1
5692.1,1
4229.6,1
8224.3,1
7816.7,1
7498.4,1
6817.7,1
5804.4,1
5453.1,1
5144.1,1
4943.9,1
4301.9,1
3716.2,1
4036.3,1
2777.2,1
3199,1
2733.5,1
2004.3,1
2389.6,1
2602.6,1
2853.6,1
3210.7,1
4577.4,1
3637.1,1
3540.7,1
3221.9,1
3452.6,1
2589.1,1
2107.9,1
2738.4,1
2354.8,1
2233.8,1
2151.5,1
2150.5,1
2213.8,1
2259,1
2338.7,1
2386.9,1
2273.1,1
2268.6,1
2326.3,1
2207,1
2014.3,1
1882.8,1
1912.7,1
1859.5,1
1902.4,1
1835.6,1
1820.8,1
1792.2,1
1829.3,1
1915.1,1
1999.3,1
2168.4,1
2156.2,1
2205.6,1
2139.3,1
2102.6,1
2068.5,1
2080.8,1
2184.1,1
2400.3,1
2405.1,1
2474.9,1
2578.2,1
2505.2,1
2701.1,1
2636.8,1
2669.2,1
2735.1,1
2943.7,1
3264.1,1
3495.2,1
3735,1
3691.2,1
3358.6,1
3290.9,1
2634.9,1
3242,1
3727.1,1
3748.6,1
3330.6,1
3582.8,1
3490.1,1
3072.5,1
3221.7,1
3099.1,1
3032.3,1
2972.4,1
2742.3,1
2691.3,1
2805.3,1
3345.4,1
3053.3,1
3892.8,1
4373.7,1
4693.9,1
4672.3,1
3159.3,1
3053.6,1
3059.3,1
3028.7,1
2964.3,1
2901.2,1
2590.5,1
2755.8,1
2934.7,1
3374.2,1
3297.3,1
2346,1
2240,1
2715.3,1
2504.9,1
2092.4,1
1830.6,1
2188.1,1
2109.1,1
1453.9,1
1936.7,1
2380.2,1
1870.5,1
1936.8,1
1713.3,1
1423.1,1
1235.6,1
1246.5,1
1172.2,1
1129.6,1
1391.3,1
1145,1
1644.5,1
1071.9,1
1031.7,1
910.28,1
709.8,1
729.9,1
876.19,1
732.07,1
468.14,1
547.38,1
537.01,1
298.69,1
265.31,1
223.05,1
119.11,1
161.78,1
273.44,1
210.82,1
276.53,1
520.17,1
507.91,1
353.78,1
424.69,1
414.26,1
261.22,1
350.48,1
172.85,1
254.76,1
149.61,1
182.95,1
340.71,1
652.46,1
1122,1
1072.7,1
1493.3,1
1502.4,1
1446.6,1
761.86,1
772.06,1
609.57,1
575.25,1
355.46,1
259.6,1
201.59,1
285.57,1
294.51,1
389.3,0
280.39,0
240.09,0
212.02,0
250.19,0
113.25,0
308.65,0
351.6,0
392.07,0
345.08,0
667.71,0
628.27,0
741.35,0
687.06,0
752.31,0
938.93,0
558.15,0
709.62,0
386.12,0
313.96,0
162,0
149.3,0
254.86,0
470.9,0
1453.1,1
2037.5,1
1749.7,1
1631.5,1
1410.9,1
1528.9,1
1376.6,1
1494.9,1
1844,1
1923.8,1
1937.2,1
1871.8,1
2110.9,1
2347,1
2437.5,1
1965.8,1
1605.5,1
2131.4,1
1930,1
2144.1,1
2416.8,1
2211.3,1
2002.5,1
2088.9,1
2065.1,1
2012.3,1
2265.7,1
2101.7,1
2302.4,1
2021.8,1
2240.3,1
2728.5,1
2713.9,1
2982.6,1
2979.6,1
3001.9,1
2824,1
3010.9,1
2651.8,1
2793.8,1
2704.8,1
2846.4,1
2774.6,1
2487.5,1
2888,1
2655.1,1
2210.5,1
2362.5,1
1876.7,1
1626.6,1
1930.7,1
1607.8,1
1646.7,1
1997.2,1
2667.5,1
1958,1
633.23,1
596.36,1
508.25,1
668.33,1
1541.2,1
3408.5,1
5345.3,1
4100.5,1
3454.1,1
3746.1,1
3343.6,1
3094.2,1
2547,1
2441,1
2236.3,1
1826.5,1
2139,1
2033.2,1
1828.7,1
1852.4,1
1806.3,1
1441.7,1
1581.6,1
1673.2,1
1647.5,1
1730.9,1
1974.4,1
1882.1,1
1743.4,1
2020,1
1801.8,1
2098.1,1
2417.4,1
1975.2,1
1903.9,1
1915.4,1
1683.3,1
1704.2,1
1993.8,1
2125.8,1
1749.8,1
2378,1
2186.1,1
2181.5,1
3417.3,1
2845,1
3175.4,1
3213.7,1
3155.2,1
4025.9,1
3324.1,1
3327,1
2740.3,1
2260.9,1
2026.6,1
1704.3,1
1542.9,1
1898.5,1
1760.6,1
1595.4,1
2576.8,1
2350,1
1767.6,1
1146.7,1
1108.9,1
1981.7,1
2671.6,1
1951.8,1
1668.9,1
1128.6,1
1351.2,1
1846.9,1
1254.4,1
918.78,1
803.07,1
733.33,1
526.13,1
632.51,1
478.37,1
425.9,1
536.06,1
366.08,1
518.34,1
324.87,0
220.74,0
409.75,0
298.54,0
167.53,0
105.66,0
132.63,0
136.83,0
186.03,0
167.27,0
133.87,0
153.08,0
115.92,0
136.69,0
213.88,1
337.66,1
759.3,1
549.1,1
591.2,1
528.78,1
485.91,1
464.82,1
509.67,1
537.89,1
522.3,1
396.51,1
484.49,1
572.9,1
629.02,1
626.56,1
638.47,1
388.66,1
503.1,1
428.55,1
279.75,1
243.31,1
351.13,1
570.67,1
741.29,1
1341.8,1
1418.1,1
1176.5,1
1384.3,1
961.28,1
664.61,1
590.15,1
526.34,1
608.13,1
647.09,1
593.24,1
773.33,1
797.3,1
650.07,1
625.45,1
457.23,1
383.93,1
893.58,1
1978.6,1
1693.1,1
2598.6,1
3608.2,1
3664.6,1
2500.8,1
3676.3,1
3401.8,1
2906.9,1
2596.6,1
2046.3,1
1489.2,1
972.86,1
1144.2,1
799.94,1
769.3,1
618.43,1
819,0
957.86,0
738.4,0
552.56,0
668.69,0
582.18,0
650.92,0
930.96,0
1018.4,0
1187.6,0
895.04,0
858.48,0
925.63,0
682.98,0
567.39,0
371.17,0
307.28,0
323.4,0
309.02,0
136.6,0
174.25,0
211.98,0
202.33,0
370,0
430.31,0
328.42,0
297.94,0
464.64,0
614.55,1
426.46,1
586.35,1
671.22,1
1191.7,1
1585.6,1
2880.5,1
4013.3,1
4313,1
4755.7,1
4440.3,1
4737.7,1
5004.6,1
5031.6,1
5299.3,1
5546.7,1
5149,1
5237,1
5574.4,1
5533.4,1
5558.6,1
5458.5,1
5488.1,1
5119,1
5121.1,1
5268,1
5030.5,1
4764.7,1
4821.2,1
5188.8,1
5533.7,1
6102,1
5746.8,1
5467.8,1
5568.4,1
5813.8,1
5321,1
5301.1,1
5243.7,1
5281.7,1
5746.7,1
5903.4,1
5496.5,1
5575.6,1
5139.9,1
4817.2,1
4421.7,1
4046.5,1
3945.3,1
4672.9,1
3570.5,1
4031.7,1
4159.6,1
3334.1,1
3127.7,1
3113,1
2322.4,1
1990.4,1
3730.6,1
4339.3,1
3901.5,1
3983.5,1
4156.6,1
3372.2,1
2953.7,1
3416.6,1
3046.1,1
3109.1,1
2802.3,1
2490.9,1
2212.3,1
2407.7,1
2300.3,1
2079.5,1
2354.6,1
2263.5,1
2227.8,1
2589.5,1
2701.4,1
2720.3,1
2395.7,1
2082.9,1
2212,1
2359.7,1
2099.4,1
1776.5,1
1923,1
1907.4,1
1722.1,1
2014.5,1
1953.9,1
1913.8,1
1935.2,1
1663,1
1533.1,1
2079.6,1
1923.6,1
1749,1
2151.8,1
1868.5,1
1425.5,1
1181.3,1
1010.7,1
788.98,1
762.07,1
677.19,1
466.22,1
506.13,1
1355,1
1426.9,1
1298.8,1
1351.7,1
2055.7,1
1743.2,1
2050,1
2228.6,1
2189.7,1
2453.7,1
2042.9,1
2380.6,1
2342.5,1
1713.2,1
1295,1
1564.8,1
1561.8,1
1205.9,1
707.93,1
1302.1,1
1002.1,1
1429.2,1
1047,1
895.44,1
665.9,1
674.32,1
357.28,1
460.97,1
507.76,1
630.46,1
625.74,1
631.12,1
500.17,1
505.16,1
395.71,1
412.73,1
173.59,1
242.83,1
231.89,1
107.09,1
82.039,1
187.28,1
313.3,1
779.33,1
900.89,1
834.49,1
1157.3,1
715.25,1
941.96,1
1278.1,1
1589.8,1
2075.7,1
1806.8,1
2174.1,1
1213.1,1
1243.1,1
1106,1
1252.9,1
706.67,1
481.55,1
782.71,1
773.49,1
614.19,1
353.37,1
223.56,1
317.29,0
245.36,0
551.48,0
864.61,0
866.35,0
7.7311,0
30.622,0
43.75,0
49.282,0
13.407,0
6.4382,0
29.023,0
46.668,0
34.685,0
23.452,0
52.626,0
18.207,0
9.2716,0
25.691,0
8.9072,0
8.2195,0
46.517,0
43.471,0
7.7516,0
19.306,0
201.64,1
383.99,1
569.21,1
714.14,1
790.25,1
1036.8,1
910.1,1
1232,1
1420.6,1
1234.4,1
1421.6,1
1411.2,1
1242.4,1
1488.6,1
1384.7,1
1091,1
1189.7,1
1421,1
1310.8,1
1314.5,1
1402.9,1
1325.9,1
1242.3,1
1313,1
1359.4,1
1509.5,1
1245.5,1
1162.1,1
1166.8,1
1202.7,1
1336,1
1258.5,1
1512.1,1
1599.9,1
1681.8,1
1363.8,1
1196,1
1058.8,1
970.51,1
815.66,1
610.68,1
767.38,1
613.37,1
861.22,1
930.47,1
816.73,1
840.3,1
908.81,1
907.8,1
854.8,1
980.85,1
907.68,1
901.66,1
978.59,1
968.93,1
831.1,1
805.93,1
681.4,1
520.24,1
551.52,1
367.81,1
376,1
162.99,1
145.43,1
160.82,1
160.89,1
188.32,1
216.63,1
142.14,1
148.91,1
130.78,1
235.11,1
196.41,1
264.46,1
302.17,1
316.65,1
296.26,1
371.78,1
329.94,1
352.54,1
505.64,1
361.23,1
444.63,1
342.71,1
283.34,1
282.56,1
421.31,1
343.58,1
263.32,1
68.747,1
139.36,1
93.177,1
66.845,1
136.72,1
113.38,1
19.315,0
16.809,0
75.063,0
39.723,0
28.103,0
14.019,0
40.75,0
3.641,0
48.505,0
100.99,0
181.87,1
157.41,1
166.65,1
166.22,1
167.99,1
248.17,1
249.97,1
200.27,1
223.04,1
270.73,1
185.23,1
295.98,1
179.83,1
198.71,1
188.48,1
283.12,1
457.37,1
459.14,1
650.45,1
753.83,1
797.02,1
755.57,1
845.12,1
864.28,1
849.6,1
916.79,1
1041.7,1
1175.9,1
1252.9,1
1245.5,1
1336,1
1434.1,1
1363.2,1
1445.3,1
1311.4,1
1301.3,1
1287.4,1
1250.4,1
1135.6,1
1091.3,1
1149.1,1
894.04,1
853.37,1
791.83,1
755.55,1
674.78,1
547.41,1
582.53,1
590.38,1
573.97,1
632.47,1
581.69,1
696.05,1
736.84,1
688,1
673.92,1
851.43,1
829.18,1
929.44,1
963.63,1
931.86,1
923.56,1
900.69,1
1154.6,1
1148.7,1
1159.9,1
1152,1
1251.6,1
1212.5,1
1251,1
1322.4,1
1328.5,1
1363,1
1370.3,1
1296.6,1
1314.4,1
1529.9,1
1602.1,1
1554.1,1
1744.5,1
1756.9,1
1701.2,1
1666.1,1
1722.9,1
1590.3,1
1584.4,1
1502,1
1490.3,1
1458.2,1
1408,1
1396.7,1
1419.8,1
1414.3,1
1396.5,1
1380.8,1
1485.4,1
1562.7,1
1615,1
1524.8,1
1739.2,1
1603.2,1
1646.7,1
1686.1,1
1668.4,1
1729,1
1773.5,1
1772.7,1
1740.2,1
1668.3,1
1632.6,1
1779.8,1
1800.6,1
2010.8,1
2189.2,1
2462.4,1
2461.9,1
2669.5,1
2495,1
2373.7,1
2256.4,1
1948.5,1
2063.2,1
2489.2,1
2601.7,1
2256.3,1
2302.1,1
2104.5,1
1958.4,1
2169.9,1
1976.6,1
1765.8,1
1953.1,1
1965.8,1
1710.3,1
1985.8,1
1946.2,1
1914.6,1
2053.2,1
1989.1,1
2123,1
2047.8,1
2042.7,1
1803.3,1
1751.1,1
1699.5,1
1711.7,1
1597.6,1
1625.2,1
1588.1,1
1787.7,1
1549.3,1
1719.3,1
1578.5,1
1392.5,1
1371.9,1
1260.5,1
1181.4,1
926.05,1
969.74,1
828.68,1
854.26,1
732.26,1
924.3,1
928.48,1
976.94,1
784.29,1
961.19,1
683.49,1
625.32,1
558.36,1
508.02,1
477.14,1
456.03,1
526.64,1
385.36,1
331,1
376.63,1
398.85,1
432.63,1
402.16,1
544.14,1
237.07,1
364.07,1
227.21,1
159.28,1
211.9,1
41.823,1
21.302,1
34.427,1
43.115,1
40.266,1
71.024,1
48.292,1
37.311,1
24.317,1
2.1262,1
45.649,1
42.089,1
37.866,1
15.626,1
7.9583,1
28.83,1
3.4666,1
121.95,1
465.7,1
693.6,1
681.86,1
843.59,1
930.32,1
822.46,1
577.63,1
393.62,1
304.97,1
255.44,1
114.03,1
46.657,1
20.902,1
0.33687,1
9.3607,1
9.6638,0
11.977,0
4.6049,0
7.9634,0
30.982,0
11.509,0
46.838,0
73.417,0
36.393,0
33.505,0
35.982,0
27.675,0
26.535,0
1.486,0
2.9369,0
41.463,0
66.521,0
44.556,0
37.491,0
53.658,0
3.0998,0
21.88,0
12.539,0
57.804,0
78.581,1
117.93,1
229.76,1
159.21,1
274.07,1
354.84,1
584.95,1
693.98,1
1007.6,1
1255.4,1
1357.4,1
1293.2,1
1551.3,1
1744.4,1
1772.8,1
1330.7,1
1161.7,1
1587.8,1
1413.1,1
1314.3,1
1242.3,1
1357.1,1
1171.4,1
1165.9,1
1082.4,1
1178.7,1
1388.5,1
1371.5,1
1352.9,1
1189.5,1
1378.9,1
1818.7,1
1801.7,1
1911.7,1
1929.7,1
1951.3,1
1714.8,1
1845.1,1
1784.6,1
1906.2,1
1728.3,1
1641.6,1
1672.9,1
1542.9,1
1898.2,1
1834.8,1
1379.5,1
1625.5,1
1203.7,1
959.26,1
1085.2,1
808.64,1
799.62,1
1373.6,1
1996.9,1
1204,1
365.57,1
60.823,1
41.816,1
105.22,1
967.81,1
1801.3,1
2824,1
2591.2,1
2284.3,1
2479.9,1
2291.9,1
2098.3,1
1630.8,1
1388.3,1
1352.4,1
1037.9,1
980.9,1
981.43,1
978.34,1
983.92,1
1109.9,1
1048.2,1
975.08,1
860.15,1
874.58,1
934.4,1
987.74,1
902.41,1
980.26,1
1006.7,1
1067.7,1
1047.6,1
1043.3,1
991.66,1
947.07,1
917.67,1
798.89,1
683.31,1
933.43,1
1100.6,1
1173.9,1
920.5,1
922.52,1
869.75,1
923.08,1
826.69,1
800.76,1
684.19,1
727.81,1
890.28,1
884.59,1
1012.1,1
1006.5,1
827.27,1
824.18,1
732.52,1
671.29,1
822.79,1
792.56,1
792.19,1
722.24,1
617.71,1
264.96,1
162.67,1
438.04,1
226.84,1
311.42,1
197.84,1
112.12,1
144.29,1
138.24,1
165.17,1
159.1,1
213.4,1
202.02,1
96.835,1
61.937,1
22.99,1
64.93,1
48.234,1
13.702,1
16.075,1
4.9626,1
34.635,0
47.448,0
16.828,0
12.027,0
30.919,0
7.1864,0
28.843,0
26.598,0
38.994,0
38.934,0
85.475,0
17.525,0
10.938,0
28.221,0
18.894,1
34.007,1
54.668,1
46.155,1
155.52,1
93.739,1
28.039,1
98.183,1
25.719,1
72.798,1
113.73,1
76.631,1
58.203,1
132.15,1
73.841,1
57.841,1
44.934,1
6.88,1
50.237,1
20.733,1
57.104,1
64.587,1
9.1194,1
34.284,1
31.258,1
38.084,1
36.285,1
124.71,1
105.19,1
130.92,1
3.1819,1
5.5819,1
10.719,1
2.8496,1
29.765,1
17.35,1
255.51,1
155.53,1
194.87,1
166.97,1
382.71,1
253.37,1
428.31,1
188.16,1
699.97,1
1925.3,1
2409.5,1
2449.6,1
1766.6,1
2797.9,1
2473.6,1
1898.2,1
1606.5,1
909.24,1
497.79,1
236.44,1
189.64,1
41.652,1
68.275,1
7.7945,1
59.895,0
9.2237,0
40.093,0
45.494,0
49.003,0
51.494,0
24.143,0
34.296,0
38.451,0
12.854,0
0.79302,0
22.918,0
27.222,0
13.779,0
43.836,0
6.8902,0
39.719,0
39.81,0
35.084,0
32.628,0
82.238,0
15.295,0
4.1723,0
13.788,0
38.217,0
28.553,0
113.29,0
29.581,0
1.4385,1
151.02,1
106.15,1
146.85,1
495.95,1
1131.7,1
2186.6,1
3129.7,1
3719.2,1
3809.2,1
3614.3,1
3625.2,1
4097.9,1
3936.4,1
4615.3,1
5061.1,1
4408,1
4335.1,1
4601.4,1
4610.6,1
4976.4,1
4569.2,1
4483.1,1
4461.4,1
4486.9,1
4863.9,1
4867.9,1
4478.7,1
4316.4,1
4550.1,1
4933.6,1
5035.3,1
5245.5,1
5064.6,1
5430.1,1
5530.7,1
5227.8,1
4853.5,1
4867.6,1
4463.2,1
5120.2,1
5227.6,1
4702.4,1
4821.7,1
4399.9,1
3946.3,1
3597.7,1
3363.5,1
2846.2,1
3627.5,1
2770.3,1
2969.6,1
3033.3,1
2225.5,1
1810.6,1
510.82,1
276.55,1
777.67,1
2003.9,1
2718,1
2363.6,1
3086.4,1
3051.6,1
2426.4,1
2039,1
2028.2,1
2055.5,1
1821.9,1
1535.6,1
1612.6,1
1581.8,1
1521.4,1
1458.8,1
1404.3,1
1322.2,1
1212.1,1
1166.6,1
1348.4,1
1630.7,1
1807,1
1461.4,1
1382.2,1
1513.5,1
1519.7,1
1454.1,1
1433.3,1
1297.7,1
1295.3,1
1339,1
1226.2,1
1256.5,1
1377.3,1
1442.8,1
1114,1
985.42,1
1009.8,1
1055,1
935.04,1
887.92,1
632.85,1
401.39,1
239.21,1
331.89,1
205.62,1
211.96,1
134.43,1
16.81,1
103.04,1
169.94,1
91.223,1
219.25,1
155.09,1
89.109,1
80.714,1
148.76,1
63.952,1
148.45,1
118.19,1
43.353,1
93.29,1
121.86,1
65.711,1
116.14,1
96.812,1
145.05,1
148.63,1
120.53,1
135.93,1
60.802,1
63.41,1
80.56,1
88.951,1
89.589,1
67.579,1
115.74,1
125.24,1
164.96,1
75.829,1
168.69,1
100.03,1
89.196,1
29.32,1
47.329,1
19.495,1
62.731,1
57.611,1
15.155,1
32.14,1
18.769,1
16.813,1
42.089,1
8.5129,1
0.16976,1
66.967,1
23.355,1
1.1852,1
20.884,1
145.35,1
710.36,1
1038.7,1
1005.3,1
1077.2,1
668.74,1
688.67,1
545.95,1
446.94,1
300.57,1
222.76,1
109.88,1
210.01,1
38.241,1
33.322,1
5.31,1
13.487,0
32.29,0
13.01,0
64.485,0
30.776,0
76.844,0
93.887,0
112.84,0
0.9826,0
39.685,0
12.609,0
50.849,0
54.656,0
117.23,0
12.03,0
34.299,0
74.262,0
61.069,0
138.46,0
36.417,0
155.85,0
134.39,0
120.15,0
207.86,0
247.79,0
239.32,1
566.28,1
833.87,1
998.93,1
1056.2,1
1259.5,1
1184.4,1
1545.4,1
1667,1
1517,1
1659.3,1
1724.5,1
1590.9,1
1739,1
1578.7,1
1280.5,1
1497.8,1
1753.1,1
1595.6,1
1392.9,1
1513.1,1
1832.1,1
1436.3,1
1398.1,1
1743,1
1733.7,1
1363.6,1
1468.3,1
1377.6,1
1443.3,1
1537,1
1395.9,1
1603.8,1
1829.3,1
1742,1
1431.9,1
1200.1,1
1129.1,1
1027.9,1
883.57,1
1010.2,1
1208.6,1
1047.7,1
1098.6,1
1145.6,1
1318,1
958.12,1
1240,1
1019,1
1092.3,1
1309.3,1
1303.1,1
1079.9,1
1263.6,1
1203.9,1
1080.5,1
1008.1,1
984.66,1
603.07,1
710.82,1
787.25,1
599.36,1
487.15,1
367,1
435.85,1
307.71,1
376.93,1
334.2,1
224.09,1
204.17,1
235.52,1
300.88,1
325.9,1
416.79,1
403.72,1
424.77,1
384,1
512.49,1
507.92,1
355.66,1
703.22,1
660.21,1
1032.2,1
591.86,1
928.06,1
677.15,1
628.34,1
529.85,1
581.28,1
375.16,1
490.23,1
306.05,1
362.54,1
302.88,1
173.99,1
206,0
248.3,0
67.965,0
137.5,0
143.78,0
138.44,0
139.57,0
148.8,0
109.71,0
166.69,0
316.7,1
175.31,1
345.49,1
317.45,1
292.93,1
265.99,1
292.54,1
476.44,1
441.87,1
330.57,1
213.28,1
318.87,1
344.74,1
265,1
282.81,1
320.87,1
730.42,1
633.24,1
675.42,1
856.69,1
993.5,1
973.81,1
1039.7,1
1102.5,1
981.25,1
1021,1
1352.9,1
1427.8,1
1492.6,1
1531.1,1
1558.9,1
1593.5,1
1551.7,1
1580.1,1
1554.1,1
1404.6,1
1414.9,1
1516,1
1310.9,1
1222.2,1
1286.8,1
994,1
878.05,1
874.09,1
863.29,1
738.85,1
685.76,1
901.01,1
742.61,1
703.36,1
630.25,1
760.4,1
821.52,1
934.1,1
874.55,1
933.21,1
1062.4,1
1160.7,1
1622.2,1
1341.6,1
1433.4,1
1069.2,1
1361.5,1
1749.9,1
1412,1
1341.3,1
1450.8,1
1491.9,1
1544.6,1
1479.3,1
1502.3,1
1632.1,1
1640.9,1
1946.7,1
1977.7,1
1621.8,1
1734.8,1
1916.7,1
1771.2,1
1794.5,1
1754.1,1
2034.3,1
1980.7,1
1893.7,1
1765.7,1
1910.5,1
1963.3,1
1857.8,1
1758.2,1
1575.8,1
1834.5,1
1731.1,1
1542.4,1
1451.5,1
1505.6,1
1504,1
1699.9,1
1784.5,1
1802.1,1
2124,1
1883.5,1
1756,1
1795,1
2022.2,1
2134.9,1
2038.1,1
2130.5,1
2045.4,1
2108.5,1
2002.8,1
2029.7,1
2023.5,1
2210.4,1
2344.1,1
2747.9,1
2703.7,1
2883,1
2799.7,1
2638.3,1
2347.5,1
2037.4,1
2226,1
2547.6,1
2485.8,1
2401.4,1
2424,1
2184.1,1
2134.6,1
2171.7,1
2042,1
1940.4,1
2015,1
1929,1
1815,1
1864.3,1
1844.3,1
1816.3,1
1841.6,1
1977.3,1
2207.3,1
2074.2,1
1856.3,1
1858.7,1
1759.7,1
1768.6,1
1730.5,1
1672.8,1
1838.2,1
1871.4,1
1862,1
1598.7,1
1881.5,1
1473.3,1
1412.1,1
1558.6,1
1270.2,1
1110.1,1
986.12,1
1041,1
886.45,1
863.25,1
713.28,1
881.07,1
976.53,1
995.12,1
898.36,1
743.01,1
800.6,1
622.33,1
681.62,1
594.65,1
464.27,1
485.88,1
416.13,1
478.96,1
363.92,1
396.07,1
364.28,1
408.19,1
523.24,1
552.05,1
365.75,1
354.84,1
399.86,1
318.06,1
123.73,1
70.095,1
100.22,1
67.895,1
120.97,1
115.69,1
34.344,1
87.958,1
163.82,1
105.63,1
20.915,1
6.3716,1
37.624,1
96.247,1
45.344,1
80.1,1
133.82,1
55.74,1
162.37,1
592.63,1
803.38,1
734.47,1
970.61,1
1023.2,1
890.21,1
589.64,1
545.12,1
369.6,1
457.86,1
132.68,1
97.781,1
146.61,1
107.58,1
283.45,1
252.34,0
317.16,0
324.76,0
336.43,0
313.26,0
292.33,0
224.91,0
124.75,0
331.57,0
123.76,0
82.147,0
68.267,0
123.51,0
34.899,0
90.301,0
134.9,0
55.318,0
56.516,0
63.099,0
117.07,0
114.71,0
105.39,0
124.97,0
184.59,0
272.56,1
317.63,1
336.09,1
304.7,1
394.67,1
690.35,1
764.33,1
893.71,1
1023.7,1
1305.3,1
1450.5,1
1486.7,1
1754.4,1
2063.3,1
1914,1
1535.6,1
1432.3,1
1726.4,1
1508.7,1
1505.9,1
1521,1
1625,1
1289.8,1
1377.7,1
1347.2,1
1476.7,1
1672.6,1
1561,1
1543.5,1
1303.1,1
1642.3,1
1993.4,1
1924.5,1
2032.4,1
1968,1
2108.7,1
1832.2,1
2046.3,1
2018.3,1
2038.7,1
1805.9,1
1730.5,1
1811.8,1
1678.4,1
2108,1
1907.3,1
1614,1
1784,1
1368.2,1
1148.5,1
1173.7,1
958.9,1
940.98,1
1520.5,1
2152.4,1
1336.3,1
400.59,1
165.6,1
128.91,1
180.73,1
1189.8,1
1949.5,1
3063.5,1
2777.3,1
2441.5,1
2677.5,1
2379.5,1
2308,1
1800.9,1
1548.7,1
1335.6,1
1057.5,1
950.15,1
1045.7,1
1084.5,1
1140,1
1182.6,1
1147.4,1
978.3,1
1104.1,1
924.75,1
981.65,1
1083.5,1
1026.1,1
866.91,1
1058.4,1
1162.9,1
1130.6,1
1093,1
1005.5,1
1059.1,1
1023.5,1
902.7,1
876.74,1
1022.8,1
1139.9,1
1178.5,1
1077.6,1
996.24,1
995.97,1
1032,1
1027.2,1
1034.7,1
834.71,1
817.57,1
869.04,1
1030.6,1
990,1
992.58,1
1077.5,1
1033.9,1
731.51,1
816.85,1
835.92,1
953.05,1
879.22,1
810.98,1
674.42,1
258.7,1
270.59,1
483.93,1
427.75,1
390.49,1
397.35,1
383.92,1
170.99,1
267.39,1
383.89,1
313.46,1
290.9,1
437.53,1
306.06,1
177.46,1
87.525,1
147.12,1
164.55,1
187.31,1
223.65,1
103.51,1
101.85,0
197.97,0
223.25,0
279.45,0
160.7,0
122.02,0
198.69,0
317.78,0
157.16,0
177.14,0
230.73,0
183.42,0
178.54,0
188.87,0
208.59,1
159.75,1
212.9,1
260.56,1
278.09,1
269.57,1
295.55,1
287.45,1
199.41,1
201.9,1
197.2,1
193.7,1
197.82,1
222.02,1
140.09,1
156.09,1
173.44,1
203.66,1
138.23,1
227.78,1
200.02,1
163.48,1
139.49,1
116.9,1
151.45,1
242.35,1
226.61,1
228.63,1
137.83,1
174.78,1
341.84,1
99.775,1
194.57,1
200.19,1
324.16,1
163.26,1
194.46,1
108.83,1
140.68,1
130.8,1
76.371,1
90.324,1
127.08,1
154.93,1
642.83,1
1811.5,1
2658.2,1
2522.3,1
1989.3,1
2902.3,1
2712.2,1
1860.5,1
1390.2,1
1084.9,1
625.85,1
297.92,1
301.7,1
229.44,1
92.5,1
71.434,1
93.96,0
91.944,0
72.269,0
92.986,0
88.233,0
165.98,0
70.946,0
47.895,0
45.06,0
82.893,0
90.11,0
220.76,0
159.36,0
144.34,0
15.477,0
63.199,0
65.324,0
79.232,0
143.46,0
167.4,0
250.39,0
129.3,0
94.823,0
140.49,0
194.95,0
133.36,0
288.48,0
65.492,0
185.37,1
327.57,1
272.42,1
290.14,1
675.86,1
1238.6,1
2323.1,1
3455.6,1
3907.1,1
4102.5,1
3849.1,1
3912.7,1
4467.5,1
4113.2,1
5012.9,1
5220.6,1
4584.2,1
4683.9,1
4840.7,1
4888.9,1
5238.3,1
4829.6,1
4618.2,1
4661.9,1
4727.2,1
5164.6,1
4891.5,1
4559.2,1
4553,1
4907.5,1
5169.1,1
5228.8,1
5549.5,1
5364.6,1
5604.5,1
5884.3,1
5413.7,1
5051.9,1
5189.2,1
4585.4,1
5377,1
5484.8,1
4888.2,1
5109.9,1
4576.6,1
4197.6,1
3724,1
3596.2,1
2964.4,1
3717.9,1
2955.9,1
3044.4,1
3158.7,1
2319.9,1
1961,1
711.07,1
437.78,1
906.59,1
2132,1
2855.7,1
2387.2,1
3253.8,1
3282.5,1
2691.2,1
2094.8,1
2216.4,1
2108.9,1
2047.3,1
1768.4,1
1796.7,1
1751.6,1
1847.2,1
1718.5,1
1446,1
1434.1,1
1320.4,1
1323.5,1
1531.9,1
1716.8,1
1785.6,1
1587.3,1
1577.6,1
1589.4,1
1731.8,1
1472.6,1
1556.2,1
1439.4,1
1507.6,1
1380.4,1
1461.6,1
1497.7,1
1588.3,1
1479.4,1
1283,1
1004.4,1
1217.2,1
1215.4,1
1024.5,1
1051.2,1
890.12,1
517.09,1
369.94,1
401.45,1
405.95,1
303.27,1
235.41,1
137.31,1
174.14,1
372.67,1
313.06,1
323.74,1
234.36,1
127.29,1
100.88,1
58.646,1
237.52,1
271.13,1
273.74,1
197.3,1
179.23,1
145.42,1
166.21,1
249.99,1
229.95,1
131.44,1
185.36,1
238.59,1
218.89,1
200.43,1
156.97,1
232.91,1
156.91,1
253.11,1
267.12,1
188.11,1
189.24,1
203.79,1
245.47,1
325.13,1
382.1,1
331.88,1
188.84,1
119.68,1
159.34,1
54.842,1
126.64,1
64.884,1
109.02,1
127.15,1
57.551,1
199.57,1
127.81,1
74.715,1
70.771,1
150.68,1
51.573,1
79.031,1
253.49,1
842.06,1
1072.1,1
1313.7,1
1114.9,1
716.81,1
724.4,1
671.99,1
456.21,1
463.04,1
270.38,1
305.82,1
147.22,1
318.6,1
151.74,1
148.06,1
146.44,0
203.22,0
186.87,0
133.12,0
188.15,0
490.93,0
406.72,0
427.55,0
261.08,0
204.45,1
486.72,1
1024.5,1
1241.2,1
1461,1
1363.7,1
1700.7,1
1901.9,1
2043.2,1
2894.6,1
2801.8,1
2919.4,1
3170.2,1
3067.3,1
3839.9,1
3521.7,1
2793.7,1
2199.5,1
1119,1
739.04,1
1128.7,1
1639.9,1
2012.5,1
2649.3,1
3496.1,1
3647.8,1
4292.1,1
4115.3,1
4898.4,1
3784.6,1
3967.1,1
3203.4,1
3700.1,1
3927.2,1
3905.1,1
3996,1
3359.5,1
3073.2,1
3071.3,1
3381.9,1
3416.3,1
2370.8,1
2764.9,1
2988.7,1
2633.4,1
2815.6,1
3496.9,1
2420.1,1
2207.8,1
2393.9,1
2444,1
2599.9,1
3241.8,1
2807.3,1
3201.4,1
3444.6,1
1940.7,1
2039,1
1967.8,1
1208.5,1
1172.7,1
838.46,1
859.69,1
1531.8,1
1858.3,1
2616.7,0
2670,0
2850,0
3073.2,0
3113,0
3232.1,0
2031.8,0
2162.3,0
2618.9,0
1605.8,0
2084.4,0
2138.7,0
1694.3,0
915.34,0
757.74,1
1165.3,1
884.23,1
1000.8,1
1442,1
1491.7,1
1458.9,1
1808.9,1
1469.4,1
1729.8,1
2144.6,1
2809.8,1
3599.2,1
3907.1,1
4323.5,1
5171.7,1
6319.3,1
6348.7,1
6967,1
6402.9,1
6386.9,1
7117.5,1
6397.9,1
5955.8,1
6316.6,1
6715.5,1
6881.9,1
5863.7,1
6589.2,1
6634.2,1
6750.6,1
6431.1,1
5774,1
6132.5,1
5634,1
5377,1
5883.6,1
5537.2,1
5707.8,1
5398.8,1
4970.3,1
5161.3,1
5145.4,1
4507.8,1
4509,1
3383.3,1
3291.2,1
4177.1,1
4215.9,1
3662.7,1
3895.5,1
4387.6,1
3637.5,1
3204.4,1
3336.4,1
3212.3,1
2496.8,1
2411.3,1
2287.3,1
1918.3,1
1253.7,1
1080.6,1
1312.3,1
991.26,1
946.96,1
954.83,1
1027.5,1
701.29,1
908.39,1
938.86,1
748.41,1
711.81,1
861.04,1
1049.7,1
1054.1,1
1162.1,1
891.43,1
919.38,1
1155.1,1
1189.8,1
1702.3,1
1763.6,1
1509.6,1
1250.2,1
1167.9,1
3333,1
5219.1,1
4052.3,1
8139.9,1
7578.2,1
7235,1
6812.2,1
5646.2,1
5634.1,1
4480.7,1
4207.8,1
4007.1,1
3377.7,1
3605,1
2244.5,1
2461,1
2378.8,1
1556.2,1
1998.1,1
1824.5,1
2064.8,1
2428.4,1
4004.8,1
2965.2,1
2405.6,1
2780,1
2469.3,1
1694.5,1
1069.2,1
1391.1,1
871.26,1
943.94,1
933.78,1
755.63,1
653.14,1
609.29,1
711.12,1
526.55,1
596.87,1
463.14,1
474.48,1
478.19,1
297.7,1
461.3,1
633.88,1
554.35,1
698.21,1
680.01,1
653.17,1
559.35,1
514.57,1
574.79,1
680.68,1
700.06,1
602.17,1
744.77,1
869.79,1
818.67,1
877.88,1
877.8,1
926.47,1
956.2,1
839.85,1
1061.9,1
1443.5,1
1413.7,1
1278,1
1654.1,1
1531.7,1
1561,1
1445.7,1
1573.5,1
1521.7,1
1626.6,1
1899.3,1
1937.1,1
1708.9,1
1701.9,1
2188.1,1
2584.4,1
2385.4,1
1922,1
2024.7,1
2117.4,1
2322.3,1
2113.5,1
1910,1
1901.8,1
2084.6,1
1487.8,1
2000.6,1
1760.4,1
2489.1,1
2629.2,1
2951.3,1
3698.3,1
3520.2,1
3076.3,1
1566.3,1
1238.1,1
1193.7,1
1167,1
1003.5,1
865.11,1
565.27,1
890.41,1
909.65,1
1289.2,1
1002.4,0
596.49,0
670.45,0
884.8,0
981.26,0
711.26,0
1140.7,0
1340.5,0
1024.7,0
656.97,0
1130.3,0
1120.7,0
672.36,0
658.23,0
537.09,0
393.55,0
290.24,0
402.45,0
506.11,0
699.54,0
811.44,1
636.17,1
1171.3,1
1173.1,1
1439.6,1
1205.3,1
1114.4,1
1266.8,1
1614.1,1
1625.6,1
1922.9,1
2500.1,1
2892.2,1
3554,1
4105.7,1
4026.1,1
4076.1,1
3686.7,1
3477,1
3883.4,1
3358.4,1
3765,1
3269.9,1
3124.5,1
2953.8,1
2557.1,1
2319.6,1
2033.3,1
2052.6,1
1884.3,1
1613.6,1
1431.9,1
1523.6,1
1401.7,1
2693.9,1
2385.2,1
2458.6,1
2640.5,1
2466.5,1
2367.8,1
2362.9,1
2332,1
2267.2,1
2186.3,1
1871.6,1
1753,1
1865.9,1
1972.9,1
2506.2,1
2336.4,1
2029.5,1
2025.8,1
2431.3,1
2255.3,1
2672.4,1
2839.6,1
2433.2,1
2600.7,1
2917,1
2162.9,1
2864.6,1
2544,1
2086,1
2350.3,1
2161.9,1
2261.8,1
915.7,1
1060.7,1
1099.9,1
890.2,1
1206.2,1
1002,1
1740.7,1
2320,1
2275.9,1
1995.1,1
1690.5,1
1412,1
1022.1,1
1034.7,1
915.25,1
567.42,1
400.83,1
267.44,1
234.01,1
233.05,1
191.14,1
212.39,1
42.147,0
145.31,0
155.38,0
418.65,0
687.08,0
322.97,0
479.18,0
463.3,0
587.73,0
430.08,0
360.1,0
236.74,0
482.7,0
430.09,0
559.78,0
533.32,1
667.01,1
884.4,1
784.76,1
743.49,1
836.97,1
1016.1,1
580.97,1
505.14,1
503.27,1
782.05,1
1021.3,1
890.7,1
1039.3,1
720.48,1
1092.7,1
1054.6,1
1021.6,1
903.53,1
1272.7,1
993.56,1
660.53,1
605.48,1
592.43,1
922.23,1
894.08,1
1285.3,1
1241.3,1
1151.5,1
1170.2,1
1800.4,1
3353,1
1972,1
1705.1,1
1552.9,1
1081.5,1
1173.3,1
1136.6,1
1375.7,1
1124.9,1
1029.7,1
1268.3,1
748.03,1
533.08,1
564.2,1
491.55,1
186.87,1
347.19,1
716.14,1
662.23,1
682.49,0
813.2,0
779.2,0
730.75,0
845.05,0
488.32,0
719.75,0
1035.8,1
898.1,1
695.52,1
1090,1
1185,1
1079,1
1257.2,1
996.69,1
554.61,1
1320.5,1
1497.2,1
1279.1,1
2351.1,1
2331.9,1
2262.8,1
2589.4,1
2669.7,1
3383.6,1
3304.6,1
2625.4,1
2136.3,1
1974.9,1
1548.8,1
1387.9,1
1422.1,1
1691.3,1
1837.8,1
1266.6,1
2292.8,1
1935.3,1
1817.3,1
1263.7,1
821.24,1
1919.8,1
2385.3,1
1968.3,1
1392.4,1
1040.6,1
1215.1,1
1617.6,1
985.37,1
814.02,0
628.9,0
657.53,0
433.5,0
514.29,0
479.54,0
376.42,0
474.45,0
351.79,1
608.23,1
658.56,1
658.52,1
1488.7,1
1721.9,1
1849,1
1571.8,1
1014.4,1
911.68,1
1147.6,1
1191.1,1
902.03,1
1133.8,1
1093.9,1
1039.8,1
1151.8,1
1375,1
2064.7,1
2046.2,1
2824.6,1
2899.4,1
1821.3,1
1673.9,1
1400.8,1
1472.7,1
1546.2,1
1291.4,1
1092,1
1325.6,1
1314.9,1
1380.6,1
1290.2,1
913,1
844.89,1
889.26,1
966.08,1
793.48,1
919.42,1
1049.4,1
1247.9,1
1676.5,1
1787.8,1
1597.1,1
1631,1
1306,1
1024.5,1
1018,1
784.31,1
859.45,1
965.56,1
754.38,1
949.21,1
1079.2,1
962.14,1
825.02,1
787.2,1
805.71,1
1264.2,1
2041.7,1
1427,1
1081.9,1
1013,1
1026.9,1
956.5,1
622.25,1
837.43,1
1230,1
1347,1
1440.8,1
1139.3,1
1313.2,1
1268,1
1015.9,1
1003.5,1
938.77,1
1264.6,1
1403.8,1
1171.3,1
909.4,1
1068.4,1
1068.8,1
1094.8,1
1314,1
1336.1,1
1518.1,1
1243.2,1
1255.5,1
1247.8,1
1039.2,1
1110.9,1
671.38,1
609.01,1
752.76,1
943.02,1
747.75,1
614.98,1
772.35,1
682.46,1
1145.7,1
1069.9,1
1086.1,1
944.74,1
1197.7,1
1202.2,1
753.05,1
1200.4,1
1195.7,1
1615.4,1
1653.1,1
1558.4,1
1554.5,1
1403.4,1
1322.2,1
1392.5,1
1699.2,1
2127,1
2246.8,1
1553.1,1
2188.9,1
2053.7,1
1998.2,1
2765.1,1
2432.8,1
2534,1
2061.7,1
2751.4,1
2228.6,1
1942.3,1
1776.8,1
1378.1,1
1580.1,1
2309.5,1
1503.5,1
1620.3,1
2732.9,1
1938.8,1
1818.5,1
1857.2,1
1970.9,1
1526.3,1
1614.9,1
1481.6,1
1281.6,1
1660.2,1
1455.2,1
1383.1,1
1364.6,1
1407.5,1
1152.3,1
1103.5,1
1433.2,1
1708.4,1
1626.5,1
2880,1
3547.7,1
3577.5,1
2892.6,1
3279,1
4129.9,1
3664,1
2956.4,1
2849.6,1
2249.3,1
1361.5,1
551.39,1
918.68,1
849.55,1
788.89,1
1094.6,1
841.88,1
813.89,1
760.49,0
685.26,0
289.8,0
442.43,0
430.1,0
470.35,0
604.73,0
621.82,0
691.86,0
817.45,0
475.45,0
13.548,0
10.064,0
23.198,0
34.276,0
39.966,0
40.91,1
161.49,1
691.29,1
778.47,1
892.65,1
672.15,1
402.85,1
689.05,1
437.35,1
980.49,1
1062.9,1
1010.7,1
1086.5,1
1025.5,1
1804.1,1
1263.9,1
1048.3,1
672.43,1
577.26,1
598.49,1
739.61,1
1355.7,1
1575.5,1
2347.8,1
3061.7,1
3370.2,1
4231.2,1
3800.8,1
4515.1,1
3120.2,1
3601.9,1
2821.9,1
2975.5,1
2881,1
2642.5,1
2726.7,1
2525.2,1
2254.3,1
2701.8,1
2943.5,1
2826.4,1
2042.2,1
2322.6,1
2643.4,1
2423.7,1
2357.2,1
2854.8,1
1937.7,1
2071.3,1
2314.2,1
2662.7,1
2555.4,1
3066.2,1
2506.7,1
2798.7,1
3051.2,1
1550,1
1834.6,1
1888.9,1
1107.5,1
824.44,1
704.27,1
472.54,1
566.29,1
231.85,1
143.01,0
182.04,0
137.09,0
20.725,0
166.82,0
118.39,0
69.658,0
19.323,0
51.899,0
59.604,0
44.624,0
6.0581,0
27.674,0
19.711,0
53.845,1
294.87,1
375.35,1
531.97,1
1094.6,1
1274.5,1
1029.9,1
1200,1
974.62,1
942.47,1
944.92,1
1635.7,1
2831.5,1
3427.3,1
3873.4,1
4569.9,1
5662.6,1
5988.4,1
6376.2,1
6070.4,1
6200.9,1
6655.6,1
5829,1
5493.5,1
5824.5,1
6196.2,1
6215,1
5789,1
6228.6,1
6572.7,1
6546,1
6120.3,1
5720.4,1
5965.6,1
5401.8,1
5274.1,1
5634.5,1
5145.6,1
5320.2,1
5097.3,1
4877.2,1
4984.7,1
4652.2,1
4401.7,1
4200.2,1
3113.8,1
2979.3,1
3968.9,1
3950.5,1
3452.2,1
3482.7,1
4078.3,1
3030.6,1
2712.1,1
2662.8,1
2705.2,1
2210.2,1
2239,1
1902.8,1
1637.2,1
1293.2,1
1064.4,1
1323.2,1
929.46,1
965.42,1
875.35,1
842.68,1
628.48,1
794.69,1
830,1
676.46,1
632.8,1
824.45,1
947.31,1
697.85,1
767.08,1
520.18,1
524.29,1
532.71,1
659.39,1
878.57,1
997.86,1
890.14,1
749.72,1
776.81,1
767.98,1
852.29,1
843.21,1
714.98,1
748.81,1
714.73,1
694.43,1
619.58,1
531.25,1
516.5,1
595.41,1
400.05,1
526.66,1
573.68,1
443.69,1
560.01,1
565.78,1
610.17,1
636.82,1
597.32,1
534.72,1
648.35,1
880.9,1
762.04,1
739.94,1
822.09,1
782.31,1
738.91,1
690.55,1
407.19,1
363.69,1
364.84,1
473.96,1
611.58,1
423.66,1
385.39,1
527.17,1
464.72,1
370,1
318.72,1
412.15,1
325.25,1
287.59,1
503.84,1
642.8,1
577.12,1
618.83,1
667.25,1
626.43,1
541.56,1
525.84,1
520.61,1
587.83,1
575.59,1
573.35,1
652.49,1
876.96,1
742.36,1
948.45,1
970.06,1
732.69,1
799.82,1
640.94,1
952.77,1
1091.5,1
1048.5,1
752.89,1
1232.8,1
1161.5,1
1393.6,1
1223.3,1
1394.5,1
1173.2,1
1225.1,1
1356,1
1562.7,1
1226.5,1
1298.5,1
1730.8,1
1898.7,1
1859.7,1
1551.9,1
1559,1
1506.1,1
1674,1
1588.6,1
1296.6,1
1135.2,1
1147.2,1
1178.1,1
1391.3,1
1418.1,1
1761.6,1
1965.4,1
1810.5,1
1705.2,1
1204.7,1
1156.1,1
795.99,1
459.98,1
304.02,1
273.3,1
281.74,1
121.29,1
52.838,1
90.501,1
117.92,1
37.771,1
2.5769,0
109.07,0
5.0818,0
30.916,0
11.036,0
156.95,0
30.29,0
87.377,0
6.4957,0
37.959,0
4.6981,0
87.336,0
29.58,0
70.536,0
0.15374,0
251.37,0
30.289,0
25.535,0
26.801,0
104.3,0
128.52,1
80.354,1
302.64,1
578.27,1
906.37,1
821.53,1
989.12,1
1059.3,1
1297.6,1
1509,1
1833,1
2515.2,1
2821.9,1
3532.2,1
4056.6,1
4012.2,1
4018.2,1
3605.6,1
3388.1,1
3798.1,1
3227.2,1
3444.2,1
2993.8,1
2932.3,1
2575.5,1
2244.6,1
2229.6,1
1768.2,1
1854.9,1
1675.5,1
1533.7,1
1346.3,1
1444.4,1
1358.4,1
2451.7,1
2073.2,1
2077.3,1
2358.1,1
2298,1
2340.6,1
2245.3,1
2172.7,1
1971.9,1
1966.1,1
1719.9,1
1694.2,1
1717.9,1
1755.8,1
2142.8,1
2079.7,1
1840.2,1
1972.2,1
2196.8,1
2221.1,1
2355.4,1
2760,1
1999.6,1
2248.6,1
2346.3,1
1752,1
2199.8,1
1947.2,1
1546.9,1
1503.4,1
1757.8,1
1654,1
640.25,1
889.99,1
968.1,1
796.63,1
1060.6,1
683.14,1
558.48,1
744.94,1
898.76,1
769.89,1
750.81,1
576.51,1
457.6,1
583.13,1
361.61,1
274.2,1
173.02,1
68.508,1
95.94,1
142.13,1
56.133,1
0.43024,1
1.0892,0
81.042,0
79.964,0
9.8357,0
55.666,0
54.312,0
2.2906,0
55.329,0
16.857,0
32.634,0
34.581,0
63.122,0
36.795,0
17.694,0
109.99,0
137.92,1
280.22,1
332.39,1
226.31,1
279.1,1
169.16,1
266.55,1
178.99,1
174.23,1
167.9,1
173.9,1
431.65,1
425.44,1
552.57,1
549.46,1
702.46,1
757.24,1
673.02,1
500.45,1
764.9,1
464.64,1
275,1
356.42,1
402.02,1
598.7,1
803.16,1
882.32,1
909.24,1
799.19,1
1016.5,1
977.66,1
1076.8,1
989.61,1
1087.1,1
829.85,1
618.72,1
676.42,1
610.41,1
774.93,1
469.65,1
343.17,1
184.38,1
97.985,1
117.4,1
44.174,1
109.17,1
156.09,1
83.733,1
6.1626,1
2.3639,1
56.085,0
44.307,0
54.656,0
206.34,0
128,0
68.747,0
36.181,0
104.51,1
152.2,1
99.805,1
280.85,1
413.04,1
239.11,1
377.7,1
377.22,1
338.25,1
345.49,1
442.95,1
374.21,1
400.47,1
253.07,1
367.94,1
424.91,1
579.49,1
624.45,1
824.02,1
921.36,1
782.9,1
941.73,1
794.57,1
876.71,1
763.9,1
978.07,1
1130,1
880.56,1
405.65,1
557.59,1
333.57,1
279.39,1
373.99,1
155.8,1
106.91,1
178.38,1
91.954,1
108.26,1
71.747,1
12.465,1
21.041,1
148.71,0
128.66,0
98.683,0
68.073,0
11.447,0
64.385,0
64.178,0
4.3626,0
11.083,1
179.93,1
397.44,1
505.03,1
1161,1
1554.5,1
1709.2,1
1443.1,1
927.87,1
905.68,1
1145,1
1271.7,1
925.41,1
1118,1
1038.2,1
919.38,1
1037.3,1
1241.8,1
1428.4,1
1664.4,1
2381.8,1
2477.5,1
1550.9,1
1401,1
1024.4,1
1112.7,1
1257.8,1
1096.8,1
776.37,1
857.3,1
846.28,1
779.98,1
838.86,1
541.25,1
531.28,1
595.32,1
647.63,1
703.17,1
587.87,1
573.57,1
560.64,1
628.66,1
559.09,1
618.43,1
602.1,1
637.4,1
486.45,1
428.32,1
321.7,1
307.9,1
274.23,1
344.16,1
630.03,1
552.19,1
628.54,1
536.51,1
821.06,1
756.13,1
973.98,1
614.12,1
610.15,1
771.61,1
532.26,1
464.07,1
395.55,1
363.92,1
404.47,1
593.19,1
531.99,1
515.34,1
465.96,1
473.88,1
512,1
383.79,1
379,1
333.33,1
582.03,1
592.51,1
436.99,1
334.87,1
504.89,1
532.1,1
530.74,1
414.71,1
369.57,1
466.13,1
424.13,1
418.57,1
382.1,1
418.99,1
556.04,1
350.52,1
370.12,1
433.7,1
637.92,1
712.68,1
598.36,1
577,1
561.52,1
832.38,1
620.02,1
776.42,1
835.57,1
823.64,1
688.99,1
473.98,1
613.76,1
832.73,1
983,1
1269.6,1
1175.5,1
1184.9,1
1034.5,1
774.3,1
914.35,1
1038.7,1
1414.8,1
1642.2,1
1187.3,1
1877.4,1
1882.2,1
1625.8,1
2223.3,1
1844.9,1
2124.6,1
1520.2,1
2166.6,1
1893,1
1663.5,1
1541.6,1
1345.6,1
1492.2,1
1998.9,1
1197,1
1102.5,1
1676.7,1
1485.4,1
1566,1
1561.7,1
1546.9,1
1394.4,1
1343,1
1182.4,1
1048,1
1367,1
1237.1,1
1123.6,1
1114.8,1
1101.2,1
729.54,1
846.83,1
1336.9,1
1231,1
1352.5,1
2640.9,1
3125.1,1
3118.7,1
2404.5,1
2265.7,1
1907.1,1
1866.4,1
1984,1
1988.4,1
1401.6,1
467.52,1
265.87,1
260.91,1
192.99,1
234.35,1
123.83,1
92.919,1
73.485,1
10.126,0
101.52,0
44.713,0
0.86205,0
6.5934,0
60.49,0
29.326,0
27.002,0
8.4082,0
7.4582,0
70.771,0
39.249,0
88.719,0
122.55,0
150.96,0
19.323,0
32.938,1
125.23,1
699.92,1
811.14,1
993.51,1
681.77,1
460.69,1
705.97,1
492.62,1
1008.4,1
1087.3,1
1076.6,1
1290.8,1
1065.6,1
1874.6,1
1456.3,1
991.96,1
747.91,1
857.76,1
850.58,1
969.84,1
1569.8,1
1754.4,1
2249,1
2980.1,1
3591.9,1
4023.9,1
3858.1,1
4512.1,1
3207.3,1
3452.1,1
2976.6,1
3223.9,1
3125.1,1
2808.7,1
2717.1,1
2550.6,1
2465.4,1
2744.6,1
3002,1
3077.9,1
2149.4,1
2380.3,1
2809.8,1
2360.4,1
2499.7,1
2914.8,1
2047.4,1
2095.6,1
2337.6,1
2597,1
2473.9,1
2989.1,1
2396.9,1
2701.2,1
2929.8,1
1745.3,1
2112.5,1
2107.3,1
1233.3,1
936.32,1
1183.6,1
723.31,1
846.43,1
372.3,1
416.49,0
518.87,0
589.45,0
368.73,0
505.18,0
461.13,0
406.95,0
379.38,0
367.06,0
239.3,0
202.59,0
352.03,0
308.54,0
324.12,0
354.29,1
542.11,1
479.81,1
758.73,1
1098.7,1
1267.9,1
1107.7,1
1361.2,1
999.14,1
980.01,1
1150.8,1
1785.5,1
2768.7,1
3373.1,1
3822.1,1
4779.5,1
5675.7,1
6141.7,1
6700.3,1
6231.3,1
6338.2,1
6901.5,1
5848.6,1
5493.4,1
5804.6,1
6396,1
6316.1,1
5812.7,1
6473.3,1
6662.7,1
6565.6,1
6050.1,1
5820.1,1
6006.9,1
5264.9,1
5251,1
5710.8,1
5103.3,1
5310.4,1
5007,1
4987.9,1
4895.7,1
4973.2,1
4320.5,1
4171.2,1
3222.2,1
2993.6,1
3855,1
3802.7,1
3343.1,1
3711.3,1
3952.7,1
2940.8,1
2672.1,1
2665.4,1
2652,1
2191.7,1
2248.6,1
2123.9,1
1703.7,1
1146.5,1
1165.3,1
1414,1
1100.5,1
1132.2,1
1059.6,1
990.98,1
800.81,1
1066.3,1
1012,1
791.36,1
832.08,1
1103,1
1011.6,1
751.64,1
818.19,1
727.82,1
635.14,1
722.1,1
739.91,1
938.93,1
1049.1,1
999.03,1
743.03,1
756.13,1
772.84,1
933.88,1
773.17,1
773.86,1
991.18,1
841.05,1
725.83,1
600.48,1
625.65,1
556.12,1
689.48,1
690.6,1
722.21,1
690.16,1
776.96,1
1297.2,1
1023.3,1
1124.2,1
919.73,1
1145.1,1
1174.6,1
853.87,1
1037.9,1
941.38,1
988.01,1
1129.2,1
1023,1
895.36,1
826.5,1
618.28,1
1028.4,1
1040.7,1
725.43,1
683.81,1
743.77,1
499.37,1
477.38,1
386.99,1
727.91,1
663.84,1
564.99,1
468.49,1
680.69,1
869.8,1
953.59,1
859.12,1
789.38,1
1053.7,1
944.9,1
671.32,1
526.23,1
576.75,1
619.67,1
671.04,1
735.19,1
814.13,1
1201.8,1
1077.6,1
1128.5,1
967.6,1
1115.4,1
1116.4,1
837.11,1
1234.4,1
1300.4,1
1444.9,1
1078.8,1
1469,1
1331.9,1
1532.3,1
1368.5,1
1641.8,1
1392.2,1
1367.3,1
1544.8,1
1831.3,1
1208,1
1251,1
1806.3,1
1716.3,1
1670.3,1
1625.6,1
1490.7,1
1458.8,1
1649.8,1
1479.7,1
1276.6,1
1176.4,1
1107.3,1
1054.4,1
1341.2,1
1126.9,1
1524.8,1
1671.5,1
1437.2,1
1496.3,1
1092.3,1
1032,1
533.28,1
342.83,1
297.58,1
267.52,1
293.04,1
135.13,1
203.8,1
261.35,1
95.122,1
52.171,1
68.313,0
17.893,0
19.209,0
54.994,0
49.22,0
1.9993,0
99.731,0
69.362,0
12.176,0
11.22,0
2.0759,0
2.8158,0
130.71,0
114.36,0
15.949,0
18.326,0
94.561,0
4.5173,0
107.99,0
157.33,0
151.74,1
155.9,1
196.59,1
626.95,1
894.93,1
828.59,1
962.21,1
1063.5,1
1319.3,1
1430.4,1
1828.9,1
2330.4,1
2932.3,1
3474.2,1
3926,1
3935,1
3976.8,1
3499.1,1
3327,1
3684.6,1
3063,1
3287.2,1
2991.3,1
2756.9,1
2415.9,1
2100.3,1
2101,1
1705,1
1869.8,1
1676.5,1
1641.4,1
1319.7,1
1462.6,1
1351,1
2436.8,1
2027.4,1
2005.5,1
2369.6,1
2207.4,1
2197.2,1
2263.4,1
2216.9,1
2013.6,1
1934.9,1
1669.2,1
1820.5,1
1772.7,1
2018.5,1
2318.5,1
2309.9,1
2088,1
2295.2,1
2530,1
2367.7,1
2506.2,1
2620.3,1
2313,1
2202.2,1
2418.2,1
1630.1,1
2289.9,1
1855.9,1
1533.3,1
1648.1,1
1758.6,1
1710.4,1
609.55,1
892.09,1
1004.3,1
792.06,1
1162.6,1
758.77,1
663.22,1
905.75,1
927.85,1
870.88,1
849.92,1
875.75,1
628.6,1
744.83,1
313.6,1
276.38,1
268.03,1
277.37,1
252.9,1
423.88,1
139.58,1
195.18,1
251.94,0
181.82,0
160.7,0
184.49,0
210.85,0
191.66,0
111.79,0
141.64,0
230.63,0
260.93,0
229.18,0
120.07,0
150.23,0
68.093,0
360.33,0
280.49,1
393.18,1
415.41,1
218.37,1
398.86,1
306.68,1
463.36,1
395.14,1
239.93,1
172.39,1
186.16,1
411.11,1
483.66,1
749.07,1
547.47,1
797.76,1
874.39,1
777.16,1
617.75,1
735.98,1
606.47,1
397.17,1
447.52,1
531.59,1
698.55,1
778.96,1
1018.6,1
928.46,1
868.12,1
1139.1,1
988.85,1
1242.5,1
1147.1,1
1226.9,1
839.11,1
663.78,1
744.16,1
654.36,1
934.04,1
459.15,1
309.34,1
157.78,1
178.29,1
141.18,1
136.59,1
120.7,1
242.81,1
115.64,1
205.29,1
81.304,1
123.15,0
183.31,0
108.83,0
63.146,0
104.46,0
130.79,0
87.011,0
34.016,1
139.38,1
234.99,1
380.69,1
444.72,1
370,1
411.29,1
409.18,1
341.88,1
415.72,1
523.48,1
441.05,1
473.8,1
622.21,1
602.12,1
539.39,1
554.65,1
576.65,1
930.76,1
915.91,1
747.12,1
1159.9,1
932.04,1
885.22,1
861.89,1
915.81,1
1227.1,1
930.49,1
389.07,1
448.92,1
401.18,1
358.22,1
332,1
377.42,1
187.95,1
344.23,1
332.76,1
199.88,1
184.8,1
232.35,1
180.61,1
233.28,0
390.08,0
323.17,0
213.86,0
128.26,0
176.24,0
198.23,0
200.42,0
240.57,1
299.48,1
490.04,1
640.77,1
1275,1
1798.9,1
1840.3,1
1396.6,1
1159.7,1
1184.6,1
1267.2,1
1278.3,1
1067.9,1
1197.1,1
1144.9,1
1116.4,1
1203.2,1
1435.7,1
1532,1
1802.4,1
2400.5,1
2585.1,1
1706.9,1
1484.3,1
1169.5,1
1210.2,1
1356.2,1
1257.3,1
1001.7,1
934.84,1
885.94,1
897.65,1
907.36,1
776.09,1
558.12,1
851.57,1
737.58,1
805.76,1
712.03,1
637.23,1
665.79,1
787.67,1
743.76,1
692.99,1
621.78,1
674.47,1
809.61,1
532.71,1
532.18,1
534.38,1
653.46,1
488.12,1
532.8,1
474.41,1
517.86,1
436.56,1
401.65,1
542.54,1
566.7,1
508.93,1
561.75,1
624.73,1
641.2,1
512.09,1
488.63,1
429.4,1
502.09,1
535.39,1
621.8,1
611.33,1
706.14,1
661.04,1
588.69,1
565.99,1
374.64,1
410.77,1
579.62,1
654.68,1
557.82,1
467.87,1
511.75,1
753.29,1
524.93,1
479.49,1
446.32,1
519.25,1
513.16,1
652.38,1
590.74,1
589.52,1
597.02,1
394.85,1
366.85,1
553.01,1
842.5,1
835.78,1
778.86,1
718.17,1
651.21,1
943.01,1
837.95,1
926.23,1
978.4,1
867.13,1
850.22,1
707.67,1
773.64,1
1005.1,1
1155.8,1
1260.7,1
1267,1
1448.1,1
1144.2,1
943.96,1
1055.9,1
1413.9,1
1608.9,1
1765.4,1
1428,1
1858,1
1898,1
1772.5,1
2231.9,1
1921.5,1
2226.2,1
1734.6,1
2164.1,1
1973.8,1
1730.6,1
1647.9,1
1247.5,1
1513,1
2108.9,1
1447.6,1
1251.1,1
1715.4,1
1525.3,1
1765.2,1
1629.5,1
1649.9,1
1499.3,1
1367.8,1
1326.4,1
1057.2,1
1434.4,1
1287.5,1
1097.7,1
1250,1
1226.5,1
817.91,1
885.12,1
1482.6,1
1275.1,1
1412.1,1
2778.4,1
3115.7,1
3115,1
2392.7,1
2333.2,1
2007.7,1
1952.5,1
1909.5,1
2091,1
1411.3,1
502.56,1
380.37,1
534.49,1
333.95,1
324.08,1
281.95,1
251.02,1
213.46,1
186.27,0
237.85,0
157.76,0
255.31,0
255.02,0
118.9,0
105.34,0
10.646,0
153.33,0
199.6,0
55.076,0
55.666,0
0,0
0,0
0,0
585.92,0
585.92,0
483.5,0
483.5,0
492.85,0
492.85,0
327.3,0
327.3,0
361.03,0
361.03,0
287.23,0
287.23,0
391.86,0
391.86,0
494.51,0
494.51,0
260.92,0
260.92,0
598.51,0
598.51,0
1357.6,0
1357.6,0
2023,0
2023,0
2760.8,0
2760.8,0
2889.6,0
2889.6,0
3050.3,0
3050.3,0
3213,0
3213,0
3355.2,0
3355.2,0
3396.6,0
3396.6,0
2200.2,0
2200.2,0
2356.1,0
2356.1,0
2784,0
2784,0
1789.4,0
1789.4,0
2281,0
2281,0
2343.6,0
2343.6,0
1890.4,0
1890.4,0
1067.5,0
1067.5,0
819.77,0
819.77,0
948.91,0
948.91,0
647.31,0
647.31,0
589.39,0
589.39,0
396.82,0
396.82,0
324.78,0
324.78,0
301.17,0
301.17,0
353.33,0
353.33,0
261.07,0
261.07,0
228.71,0
228.71,0
147.72,0
147.72,0
141.77,0
141.77,0
157.48,0
157.48,0
21.059,0
21.059,0
7.3432,0
7.3432,0
69.931,0
69.931,0
96.855,0
96.855,0
33.385,0
33.385,0
41.644,0
41.644,0
85.978,0
85.978,0
39.545,0
39.545,0
14.84,0
14.84,0
138.5,0
138.5,0
87.789,0
87.789,0
157.73,0
157.73,0
119.25,0
119.25,0
138.97,0
138.97,0
115.72,0
115.72,0
93.233,0
93.233,0
86.866,0
86.866,0
87.615,0
87.615,0
155,0
155,0
183.97,0
183.97,0
215.9,0
215.9,0
230.15,0
230.15,0
447.01,0
447.01,0
349.63,0
349.63,0
559.65,0
559.65,0
509.41,0
509.41,0
424.15,0
424.15,0
231.21,0
231.21,0
281.05,0
281.05,0
203.12,0
203.12,0
375.79,0
375.79,0
562.77,0
562.77,0
639.73,0
639.73,0
466.27,0
466.27,0
691.2,0
691.2,0
611.18,0
611.18,0
665.82,0
665.82,0
1054.8,0
1054.8,0
866.84,0
866.84,0
723.66,0
723.66,0
713.34,0
713.34,0
837.87,0
837.87,0
828.3,0
828.3,0
754.14,0
754.14,0
850.36,0
850.36,0
980.5,0
980.5,0
1013.2,0
1013.2,0
627.27,0
627.27,0
826.41,0
826.41,0
768.04,0
768.04,0
1131.9,0
1131.9,0
1198.5,0
1198.5,0
1744.1,0
1744.1,0
2851.5,0
2851.5,0
2989.9,0
2989.9,0
2547.7,0
2547.7,0
1224.1,0
1224.1,0
1094.5,0
1094.5,0
1121.8,0
1121.8,0
1194.1,0
1194.1,0
886.19,0
886.19,0
866.19,0
866.19,0
612.32,0
612.32,0
987.33,0
987.33,0
996.96,0
996.96,0
1422.5,0
1422.5,0
1108.2,0
1108.2,0
663.71,0
663.71,0
766.77,0
766.77,0
998.69,0
998.69,0
1117.4,0
1117.4,0
814.96,0
814.96,0
1295.5,0
1295.5,0
1510.4,0
1510.4,0
1162.1,0
1162.1,0
752.36,0
752.36,0
1280.1,0
1280.1,0
1270.6,0
1270.6,0
772.81,0
772.81,0
760.02,0
760.02,0
618.11,0
618.11,0
466.5,0
466.5,0
351.36,0
351.36,0
470.99,0
470.99,0
593.73,0
593.73,0
778.53,0
778.53,0
792.22,0
792.22,0
623.62,0
623.62,0
1161.4,0
1161.4,0
671.15,0
671.15,0
633.47,0
633.47,0
487.88,0
487.88,0
304.39,0
304.39,0
313.34,0
313.34,0
419.57,0
419.57,0
332.62,0
332.62,0
189.14,0
189.14,0
216.94,0
216.94,0
217.25,0
217.25,0
178.25,0
178.25,0
135.14,0
135.14,0
126.46,0
126.46,0
100.73,0
100.73,0
125.24,0
125.24,0
211.48,0
211.48,0
168.5,0
168.5,0
258.18,0
258.18,0
462.78,0
462.78,0
485.21,0
485.21,0
348.32,0
348.32,0
420.58,0
420.58,0
420.34,0
420.34,0
249.82,0
249.82,0
352.08,0
352.08,0
176.87,0
176.87,0
279.1,0
279.1,0
162.07,0
162.07,0
177.15,0
177.15,0
131.25,0
131.25,0
65.992,0
65.992,0
210.32,0
210.32,0
371.64,0
371.64,0
443.16,0
443.16,0
402.41,0
402.41,0
347.07,0
347.07,0
259.96,0
259.96,0
237.81,0
237.81,0
266.63,0
266.63,0
419.25,0
419.25,0
318.45,0
318.45,0
302.27,0
302.27,0
226.91,0
226.91,0
298.95,0
298.95,0
325.07,0
325.07,0
401.87,0
401.87,0
303.68,0
303.68,0
282.51,0
282.51,0
222.83,0
222.83,0
264.52,0
264.52,0
149.32,0
149.32,0
332.87,0
332.87,0
382.17,0
382.17,0
419.25,0
419.25,0
375.13,0
375.13,0
718.37,0
718.37,0
671.82,0
671.82,0
783.83,0
783.83,0
728.83,0
728.83,0
822.16,0
822.16,0
1024.1,0
1024.1,0
621.79,0
621.79,0
789.7,0
789.7,0
422.36,0
422.36,0
364.49,0
364.49,0
188.2,0
188.2,0
199.75,0
199.75,0
274.75,0
274.75,0
429.31,0
429.31,0
1485.7,0
1485.7,0
1999.9,0
1999.9,0
1628.3,0
1628.3,0
1400.9,0
1400.9,0
1191.3,0
1191.3,0
1313.8,0
1313.8,0
1852.7,0
1852.7,0
1122.9,0
1122.9,0
920.69,0
920.69,0
724.51,0
724.51,0
739.27,0
739.27,0
504.34,0
504.34,0
620.48,0
620.48,0
544.36,0
544.36,0
454.4,0
454.4,0
546.65,0
546.65,0
384.7,0
384.7,0
553.37,0
553.37,0
347.47,0
347.47,0
238.15,0
238.15,0
433.57,0
433.57,0
327.37,0
327.37,0
183.08,0
183.08,0
119.25,0
119.25,0
147.41,0
147.41,0
153.35,0
153.35,0
208.43,0
208.43,0
185.06,0
185.06,0
148.88,0
148.88,0
171.68,0
171.68,0
147.63,0
147.63,0
186.88,0
186.88,0
217.05,0
217.05,0
317.32,0
317.32,0
820.22,0
820.22,0
550.22,0
550.22,0
600.57,0
600.57,0
586.95,0
586.95,0
502.31,0
502.31,0
522.13,0
522.13,0
439.65,0
439.65,0
459.27,0
459.27,0
505.41,0
505.41,0
412.67,0
412.67,0
583.88,0
583.88,0
782.98,0
782.98,0
621.31,0
621.31,0
873.85,0
873.85,0
649.34,0
649.34,0
316.14,0
316.14,0
466.44,0
466.44,0
357.72,0
357.72,0
443.92,0
443.92,0
210.49,0
210.49,0
406.11,0
406.11,0
514.64,0
514.64,0
418.83,0
418.83,0
913.09,0
913.09,0
1976.2,0
1976.2,0
1166.4,0
1166.4,0
755.52,0
755.52,0
725.01,0
725.01,0
756.35,0
756.35,0
718.82,0
718.82,0
479.78,0
479.78,0
615.44,0
615.44,0
987.77,0
987.77,0
1113.5,0
1113.5,0
1187.6,0
1187.6,0
819.41,0
819.41,0
899.16,0
899.16,0
1045.2,0
1045.2,0
865.44,0
865.44,0
805.65,0
805.65,0
708.56,0
708.56,0
878.96,0
878.96,0
1063.4,0
1063.4,0
816.64,0
816.64,0
635.49,0
635.49,0
740.35,0
740.35,0
678.05,0
678.05,0
710.56,0
710.56,0
1000.3,0
1000.3,0
1102.8,0
1102.8,0
1247.6,0
1247.6,0
944.82,0
944.82,0
915.95,0
915.95,0
1012.6,0
1012.6,0
731.97,0
731.97,0
595.69,0
595.69,0
392.25,0
392.25,0
330.25,0
330.25,0
344.95,0
344.95,0
338.33,0
338.33,0
166.85,0
166.85,0
191.67,0
191.67,0
231.07,0
231.07,0
213.45,0
213.45,0
397.04,0
397.04,0
463.66,0
463.66,0
356.55,0
356.55,0
322.31,0
322.31,0
492.97,0
492.97,0
658.25,0
658.25,0
349.47,0
349.47,0
612.88,0
612.88,0
367.02,0
367.02,0
702.24,0
702.24,0
400.08,0
400.08,0
521.92,0
521.92,0
405.41,0
405.41,0
496.88,0
496.88,0
675.15,0
675.15,0
573.14,0
573.14,0
709.02,0
709.02,0
753.31,0
753.31,0
620.37,0
620.37,0
426.41,0
426.41,0
449.57,0
449.57,0
311.15,0
311.15,0
452.01,0
452.01,0
694.39,0
694.39,0
752.82,0
752.82,0
470.15,0
470.15,0
628.08,0
628.08,0
736.72,0
736.72,0
413.97,0
413.97,0
290.75,0
290.75,0
307.79,0
307.79,0
156.12,0
156.12,0
152.89,0
152.89,0
317.74,0
317.74,0
447.51,0
447.51,0
643.96,0
643.96,0
1248.9,0
1248.9,0
472.03,0
472.03,0
332.28,0
332.28,0
362.37,0
362.37,0
459.9,0
459.9,0
199.12,0
199.12,0
298.12,0
298.12,0
289.5,0
289.5,0
297.8,0
297.8,0
283.96,0
283.96,0
482.05,0
482.05,0
387.85,0
387.85,0
412.91,0
412.91,0
315.63,0
315.63,0
407.49,0
407.49,0
358.55,0
358.55,0
202.77,0
202.77,0
525.4,0
525.4,0
469.18,0
469.18,0
337.32,0
337.32,0
611.49,0
611.49,0
571.61,0
571.61,0
577.52,0
577.52,0
1196.3,0
1196.3,0
2632.5,0
2632.5,0
2084.3,0
2084.3,0
1202.9,0
1202.9,0
1077.2,0
1077.2,0
1000.7,0
1000.7,0
1014.2,0
1014.2,0
384.66,0
384.66,0
740.09,0
740.09,0
883.15,0
883.15,0
751.99,0
751.99,0
1129.5,0
1129.5,0
858.13,0
858.13,0
867.03,0
867.03,0
820.89,0
820.89,0
711.75,0
711.75,0
319.5,0
319.5,0
504.71,0
504.71,0
477.22,0
477.22,0
611,0
611,0
638.58,0
638.58,0
965.87,0
965.87,0
1113.1,0
1113.1,0
1019.6,0
1019.6,0
834.08,0
834.08,0
579.19,0
579.19,0
548.93,0
548.93,0
629.22,0
629.22,0
583.44,0
583.44,0
457.38,0
457.38,0
535.75,0
535.75,0
1199.9,0
1199.9,0
1478.7,0
1478.7,0
1224.8,0
1224.8,0
1328,0
1328,0
2012.3,0
2012.3,0
1611.1,0
1611.1,0
4.8504,0
4.8504,0
31.772,0
31.772,0
43.153,0
43.153,0
48.665,0
48.665,0
1.5599,0
1.5599,0
41.947,0
41.947,0
67.573,0
67.573,0
56.057,0
56.057,0
7.8559,0
7.8559,0
0.6776,0
0.6776,0
31.907,0
31.907,0
38.552,0
38.552,0
12.699,0
12.699,0
14.768,0
14.768,0
1.7586,0
1.7586,0
44.978,0
44.978,0
65.102,0
65.102,0
27.222,0
27.222,0
3.9497,0
3.9497,0
34.624,0
34.624,0
6.6639,0
6.6639,0
29.222,0
29.222,0
19.657,0
19.657,0
28.452,0
28.452,0
1.1974,0
1.1974,0
4.27,0
4.27,0
15.783,0
15.783,0
15.057,0
15.057,0
3.8205,0
3.8205,0
45.466,0
45.466,0
156.35,0
156.35,0
34.516,0
34.516,0
11.31,0
11.31,0
91.79,0
91.79,0
139.57,0
139.57,0
36.196,0
36.196,0
46.369,0
46.369,0
18.891,0
18.891,0
30.64,0
30.64,0
26.494,0
26.494,0
11.643,0
11.643,0
34.009,0
34.009,0
12.923,0
12.923,0
56.281,0
56.281,0
7.8101,0
7.8101,0
27.119,0
27.119,0
36.483,0
36.483,0
8.644,0
8.644,0
4.0446,0
4.0446,0
24.427,0
24.427,0
24.578,0
24.578,0
21.489,0
21.489,0
30.243,0
30.243,0
80.346,0
80.346,0
17.665,0
17.665,0
73.181,0
73.181,0
85.77,0
85.77,0
51.925,0
51.925,0
51.757,0
51.757,0
48.309,0
48.309,0
1.515,0
1.515,0
37.371,0
37.371,0
63.39,0
63.39,0
40.988,0
40.988,0
11.555,0
11.555,0
31.145,0
31.145,0
31.19,0
31.19,0
67.695,0
67.695,0
53.609,0
53.609,0
66.217,0
66.217,0
0.22487,0
0.22487,0
44.616,0
44.616,0
56.792,0
56.792,0
8.7558,0
8.7558,0
49.326,0
49.326,0
11.801,0
11.801,0
85.986,0
85.986,0
165.16,0
165.16,0
91.798,0
91.798,0
19.304,0
19.304,0
15.004,0
15.004,0
3.5951,0
3.5951,0
63.76,0
63.76,0
16.855,0
16.855,0
19.344,0
19.344,0
6.0929,0
6.0929,0
84.771,0
84.771,0
78.939,0
78.939,0
265.85,0
265.85,0
194.86,0
194.86,0
196.29,0
196.29,0
310.17,0
310.17,0
258.54,0
258.54,0
230.07,0
230.07,0
199.83,0
199.83,0
235.06,0
235.06,0
125.99,0
125.99,0
66.025,0
66.025,0
13.474,0
13.474,0
28.974,0
28.974,0
14.455,0
14.455,0
19.855,0
19.855,0
19.949,0
19.949,0
47.692,0
47.692,0
4.8725,0
4.8725,0
19.036,0
19.036,0
77.495,0
77.495,0
20.853,0
20.853,0
39.898,0
39.898,0
1.5017,0
1.5017,0
128.36,0
128.36,0
17.049,0
17.049,0
64.553,0
64.553,0
16.98,0
16.98,0
21.541,0
21.541,0
14.591,0
14.591,0
62.062,0
62.062,0
16.459,0
16.459,0
53.058,0
53.058,0
11.871,0
11.871,0
212.87,0
212.87,0
37.194,0
37.194,0
10.278,0
10.278,0
12.501,0
12.501,0
72.995,0
72.995,0
29.688,0
29.688,0
30.756,0
30.756,0
96.374,0
96.374,0
7.447,0
7.447,0
23.936,0
23.936,0
8.8508,0
8.8508,0
39.948,0
39.948,0
53.753,0
53.753,0
22.908,0
22.908,0
148.54,0
148.54,0
2.9213,0
2.9213,0
122.63,0
122.63,0
14.87,0
14.87,0
20.252,0
20.252,0
156.99,0
156.99,0
32.482,0
32.482,0
71.804,0
71.804,0
9.7427,0
9.7427,0
8.3246,0
8.3246,0
3.7523,0
3.7523,0
37.257,0
37.257,0
8.1527,0
8.1527,0
10.476,0
10.476,0
8.9123,0
8.9123,0
25.329,0
25.329,0
16.062,0
16.062,0
6.043,0
6.043,0
9.4175,0
9.4175,0
35.822,0
35.822,0
7.0612,0
7.0612,0
34.549,0
34.549,0
17.614,0
17.614,0
16.772,0
16.772,0
5.2311,0
5.2311,0
11.512,0
11.512,0
44.833,0
44.833,0
12.233,0
12.233,0
2.5957,0
2.5957,0
49.932,0
49.932,0
69.595,0
69.595,0
24.436,0
24.436,0
8.5541,0
8.5541,0
0.43637,0
0.43637,0
71.398,0
71.398,0
16.406,0
16.406,0
27.325,0
27.325,0
7.1257,0
7.1257,0
4.5461,0
4.5461,0
19.372,0
19.372,0
19.511,0
19.511,0
1.0995,0
1.0995,0
30.237,0
30.237,0
24.093,0
24.093,0
34.914,0
34.914,0
34.23,0
34.23,0
88.075,0
88.075,0
37.963,0
37.963,0
39.601,0
39.601,0
24.907,0
24.907,0
32.62,0
32.62,0
27.504,0
27.504,0
5.8277,0
5.8277,0
3.7812,0
3.7812,0
43.709,0
43.709,0
88.206,0
88.206,0
36.455,0
36.455,0
31.755,0
31.755,0
56.373,0
56.373,0
11.33,0
11.33,0
35.879,0
35.879,0
14.111,0
14.111,0
0.18701,0
0.18701,0
9.8526,0
9.8526,0
10.556,0
10.556,0
60.231,0
60.231,0
44.425,0
44.425,0
20.817,0
20.817,0
10.671,0
10.671,0
14.019,0
14.019,0
3.6681,0
3.6681,0
110.07,0
110.07,0
86.95,0
86.95,0
57.184,0
57.184,0
39.522,0
39.522,0
1.3353,0
1.3353,0
39.232,0
39.232,0
44.886,0
44.886,0
5.5485,0
5.5485,0
24.137,0
24.137,0
1.562,0
1.562,0
30.127,0
30.127,0
58.094,0
58.094,0
19.813,0
19.813,0
18.503,0
18.503,0
27.534,0
27.534,0
10.978,0
10.978,0
27.858,0
27.858,0
27.466,0
27.466,0
36.926,0
36.926,0
43.436,0
43.436,0
91.91,0
91.91,0
22.947,0
22.947,0
31.344,0
31.344,0
3.0866,0
3.0866,0
12.127,0
12.127,0
6.915,0
6.915,0
37.369,0
37.369,0
1.1446,0
1.1446,0
131.56,0
131.56,0
56.132,0
56.132,0
21.683,0
21.683,0
61.202,0
61.202,0
0.11592,0
0.11592,0
89.124,0
89.124,0
143.74,0
143.74,0
125.38,0
125.38,0
95.072,0
95.072,0
159.84,0
159.84,0
111.13,0
111.13,0
69.9,0
69.9,0
56.622,0
56.622,0
3.3213,0
3.3213,0
40.565,0
40.565,0
0.99974,0
0.99974,0
37.222,0
37.222,0
64.761,0
64.761,0
8.1704,0
8.1704,0
418.11,0
418.11,0
270.75,0
270.75,0
446,0
446,0
124.11,0
124.11,0
129.82,0
129.82,0
240.96,0
240.96,0
100.54,0
100.54,0
75.716,0
75.716,0
53.146,0
53.146,0
88.62,0
88.62,0
74.388,0
74.388,0
217.96,0
217.96,0
140.06,0
140.06,0
104.45,0
104.45,0
60.019,0
60.019,0
45.983,0
45.983,0
188.48,0
188.48,0
45.827,0
45.827,0
99.912,0
99.912,0
32.78,0
32.78,0
120.38,0
120.38,0
64.71,0
64.71,0
23.653,0
23.653,0
16.832,0
16.832,0
92.29,0
92.29,0
1.6606,0
1.6606,0
53.739,0
53.739,0
4.362,0
4.362,0
3.0215,0
3.0215,0
33.069,0
33.069,0
49.214,0
49.214,0
13.728,0
13.728,0
7.0793,0
7.0793,0
10.475,0
10.475,0
41.817,0
41.817,0
6.5232,0
6.5232,0
44.383,0
44.383,0
38.18,0
38.18,0
32.702,0
32.702,0
38.168,0
38.168,0
92.549,0
92.549,0
16.198,0
16.198,0
7.5315,0
7.5315,0
23.296,0
23.296,0
30.401,0
30.401,0
25.44,0
25.44,0
126.22,0
126.22,0
24.95,0
24.95,0
7.7197,0
7.7197,0
18.345,0
18.345,0
29.475,0
29.475,0
39.274,0
39.274,0
23.372,0
23.372,0
51.274,0
51.274,0
5.462,0
5.462,0
11.388,0
11.388,0
15.751,0
15.751,0
41.755,0
41.755,0
3.9053,0
3.9053,0
33.987,0
33.987,0
40.176,0
40.176,0
5.1783,0
5.1783,0
38.717,0
38.717,0
27.951,0
27.951,0
0.75886,0
0.75886,0
34.829,0
34.829,0
55.086,0
55.086,0
16.361,0
16.361,0
18.757,0
18.757,0
20.546,0
20.546,0
90.652,0
90.652,0
33.555,0
33.555,0
53.027,0
53.027,0
34.871,0
34.871,0
95.926,0
95.926,0
16.374,0
16.374,0
4.3268,0
4.3268,0
2.0713,0
2.0713,0
1.5102,0
1.5102,0
72.454,0
72.454,0
27.52,0
27.52,0
24.315,0
24.315,0
1.6917,0
1.6917,0
47.195,0
47.195,0
23.548,0
23.548,0
3.3569,0
3.3569,0
18.279,0
18.279,0
4.6589,0
4.6589,0
4.9125,0
4.9125,0
70.59,0
70.59,0
34.055,0
34.055,0
53.731,0
53.731,0
38.072,0
38.072,0
38.392,0
38.392,0
47.118,0
47.118,0
47.163,0
47.163,0
29.752,0
29.752,0
3.319,0
3.319,0
4.9294,0
4.9294,0
40.874,0
40.874,0
6.7233,0
6.7233,0
15.489,0
15.489,0
2.3605,0
2.3605,0
28.549,0
28.549,0
2.6094,0
2.6094,0
24.759,0
24.759,0
42.742,0
42.742,0
37.771,0
37.771,0
43.122,0
43.122,0
35.653,0
35.653,0
9.4373,0
9.4373,0
32.392,0
32.392,0
85.727,0
85.727,0
0.92141,0
0.92141,0
12.187,0
12.187,0
27.718,0
27.718,0
41.273,0
41.273,0
48.142,0
48.142,0
0.30724,0
0.30724,0
17.934,0
17.934,0
12.729,0
12.729,0
10.611,0
10.611,0
33.645,0
33.645,0
55.498,0
55.498,0
27.241,0
27.241,0
29.753,0
29.753,0
8.0336,0
8.0336,0
33.666,0
33.666,0
2.2942,0
2.2942,0
24.234,0
24.234,0
38.614,0
38.614,0
40.959,0
40.959,0
44.654,0
44.654,0
11.614,0
11.614,0
27.629,0
27.629,0
88.083,0
88.083,0
35.6,0
35.6,0
13.276,0
13.276,0
21.415,0
21.415,0
98.593,0
98.593,0
106.61,0
106.61,0
144.83,0
144.83,0
8.8416,0
8.8416,0
436.61,0
436.61,0
455.01,0
455.01,0
290.19,0
290.19,0
259.05,0
259.05,0
485.42,0
485.42,0
253.45,0
253.45,0
351.2,0
351.2,0
209.96,0
209.96,0
322.92,0
322.92,0
503.25,0
503.25,0
407.06,0
407.06,0
254.09,0
254.09,0
321.09,0
321.09,0
369.2,0
369.2,0
351.19,0
351.19,0
328.75,0
328.75,0
363.42,0
363.42,0
222.48,0
222.48,0
179.71,0
179.71,0
366.69,0
366.69,0
280.93,0
280.93,0
316.98,0
316.98,0
277.2,0
277.2,0
265.99,0
265.99,0
117.08,0
117.08,0
330.74,0
330.74,0
311.6,0
311.6,0
350.54,0
350.54,0
143.22,0
143.22,0
98.636,0
98.636,0
94.29,0
94.29,0
317.48,0
317.48,0
310.22,0
310.22,0
226.96,0
226.96,0
142.47,0
142.47,0
372.78,0
372.78,0
430.45,0
430.45,0
382.76,0
382.76,0
302.06,0
302.06,0
152.2,0
152.2,0
361.59,0
361.59,0
345.29,0
345.29,0
125.08,0
125.08,0
39.717,0
39.717,0
82.698,0
82.698,0
76.067,0
76.067,0
139.04,0
139.04,0
237,0
237,0
191.25,0
191.25,0
479.85,0
479.85,0
370.52,0
370.52,0
281.03,0
281.03,0
218.95,0
218.95,0
334.97,0
334.97,0
335.38,0
335.38,0
190.87,0
190.87,0
346.63,0
346.63,0
300.63,0
300.63,0
399.37,0
399.37,0
337.83,0
337.83,0
359.22,0
359.22,0
206.19,0
206.19,0
164.72,0
164.72,0
192.23,0
192.23,0
271.05,0
271.05,0
209.23,0
209.23,0
268.36,0
268.36,0
290.58,0
290.58,0
284.88,0
284.88,0
137,0
137,0
126.71,0
126.71,0
178.88,0
178.88,0
129.59,0
129.59,0
106.74,0
106.74,0
268.42,0
268.42,0
81.347,0
81.347,0
74.547,0
74.547,0
104.64,0
104.64,0
86.79,0
86.79,0
121.93,0
121.93,0
142.08,0
142.08,0
52.017,0
52.017,0
79.809,0
79.809,0
92.605,0
92.605,0
73.856,0
73.856,0
33.232,0
33.232,0
77.932,0
77.932,0
120.8,0
120.8,0
158.37,0
158.37,0
247.16,0
247.16,0
179.34,0
179.34,0
61.991,0
61.991,0
117.86,0
117.86,0
87.771,0
87.771,0
64.301,0
64.301,0
76.588,0
76.588,0
34.861,0
34.861,0
159.24,0
159.24,0
221.89,0
221.89,0
56.142,0
56.142,0
33.457,0
33.457,0
49.852,0
49.852,0
5.3048,0
5.3048,0
12.066,0
12.066,0
54.306,0
54.306,0
48.384,0
48.384,0
5.6023,0
5.6023,0
94.059,0
94.059,0
66.531,0
66.531,0
10.045,0
10.045,0
5.9415,0
5.9415,0
5.7946,0
5.7946,0
4.1878,0
4.1878,0
125.08,0
125.08,0
108.81,0
108.81,0
14.167,0
14.167,0
20.477,0
20.477,0
92.608,0
92.608,0
3.2454,0
3.2454,0
100.66,0
100.66,0
119.97,0
119.97,0
59.753,0
59.753,0
36.7,0
36.7,0
5.8746,0
5.8746,0
40.926,0
40.926,0
13.467,0
13.467,0
44.761,0
44.761,0
74.454,0
74.454,0
60.706,0
60.706,0
101.94,0
101.94,0
195.6,0
195.6,0
119.01,0
119.01,0
82.774,0
82.774,0
242.98,0
242.98,0
184.33,0
184.33,0
34.43,0
34.43,0
21.918,0
21.918,0
72.67,0
72.67,0
35.276,0
35.276,0
75.724,0
75.724,0
68.405,0
68.405,0
28.435,0
28.435,0
51.905,0
51.905,0
151.47,0
151.47,0
85.141,0
85.141,0
20.448,0
20.448,0
31.86,0
31.86,0
10.662,0
10.662,0
58.791,0
58.791,0
65.619,0
65.619,0
84.327,0
84.327,0
148.08,0
148.08,0
62.09,0
62.09,0
76.687,0
76.687,0
65.085,0
65.085,0
66.025,0
66.025,0
25.53,0
25.53,0
53.298,0
53.298,0
135.15,0
135.15,0
105.66,0
105.66,0
70.945,0
70.945,0
84.545,0
84.545,0
132.3,0
132.3,0
181.47,0
181.47,0
146.72,0
146.72,0
127.25,0
127.25,0
171.15,0
171.15,0
124.79,0
124.79,0
314.98,0
314.98,0
282.55,0
282.55,0
335.76,0
335.76,0
361.74,0
361.74,0
384.49,0
384.49,0
351.79,0
351.79,0
319.17,0
319.17,0
262.3,0
262.3,0
140.1,0
140.1,0
384.87,0
384.87,0
150.38,0
150.38,0
89.968,0
89.968,0
86.858,0
86.858,0
143.27,0
143.27,0
45.855,0
45.855,0
109.01,0
109.01,0
165.45,0
165.45,0
86.758,0
86.758,0
90.578,0
90.578,0
64.328,0
64.328,0
115.56,0
115.56,0
137.04,0
137.04,0
127.26,0
127.26,0
150,0
150,0
121.63,0
121.63,0
196.51,0
196.51,0
190.94,0
190.94,0
174.34,0
174.34,0
104.29,0
104.29,0
132.69,0
132.69,0
136.64,0
136.64,0
199.77,0
199.77,0
171.08,0
171.08,0
218.4,0
218.4,0
363.59,0
363.59,0
295.74,0
295.74,0
197.69,0
197.69,0
101.1,0
101.1,0
159.72,0
159.72,0
197.6,0
197.6,0
189.84,0
189.84,0
237.1,0
237.1,0
133.12,0
133.12,0
117.92,0
117.92,0
223.72,0
223.72,0
254.74,0
254.74,0
313.45,0
313.45,0
185.69,0
185.69,0
141.57,0
141.57,0
226.46,0
226.46,0
355.15,0
355.15,0
180.72,0
180.72,0
201.85,0
201.85,0
254.55,0
254.55,0
210.38,0
210.38,0
215.37,0
215.37,0
252.32,0
252.32,0
244.8,0
244.8,0
217.22,0
217.22,0
271.22,0
271.22,0
231.34,0
231.34,0
283.66,0
283.66,0
296.06,0
296.06,0
298.17,0
298.17,0
282.43,0
282.43,0
188.95,0
188.95,0
245.92,0
245.92,0
327.05,0
327.05,0
297.65,0
297.65,0
351.81,0
351.81,0
216.65,0
216.65,0
300.99,0
300.99,0
200.49,0
200.49,0
261.44,0
261.44,0
206.43,0
206.43,0
99.315,0
99.315,0
312.79,0
312.79,0
174.68,0
174.68,0
222.78,0
222.78,0
171.91,0
171.91,0
80.137,0
80.137,0
106.22,0
106.22,0
135.11,0
135.11,0
78.679,0
78.679,0
143.42,0
143.42,0
152.04,0
152.04,0
231.78,0
231.78,0
123.25,0
123.25,0
132.87,0
132.87,0
142.94,0
142.94,0
199.8,0
199.8,0
206.54,0
206.54,0
284.76,0
284.76,0
265.69,0
265.69,0
319.24,0
319.24,0
213.91,0
213.91,0
264.37,0
264.37,0
205.74,0
205.74,0
109.41,0
109.41,0
134.48,0
134.48,0
180,0
180,0
142.35,0
142.35,0
152.87,0
152.87,0
204.33,0
204.33,0
139.33,0
139.33,0
233.16,0
233.16,0
93.795,0
93.795,0
94.877,0
94.877,0
117.39,0
117.39,0
113.05,0
113.05,0
131.31,0
131.31,0
243.69,0
243.69,0
205.63,0
205.63,0
168.63,0
168.63,0
29.652,0
29.652,0
78.594,0
78.594,0
84.37,0
84.37,0
98.28,0
98.28,0
167.4,0
167.4,0
185.34,0
185.34,0
278.95,0
278.95,0
151.75,0
151.75,0
115.34,0
115.34,0
162.58,0
162.58,0
224.55,0
224.55,0
158.25,0
158.25,0
328.56,0
328.56,0
84.085,0
84.085,0
194.55,0
194.55,0
223,0
223,0
154.93,0
154.93,0
183.72,0
183.72,0
203.78,0
203.78,0
17.266,0
17.266,0
141.38,0
141.38,0
319.13,0
319.13,0
105.12,0
105.12,0
140.38,0
140.38,0
148.76,0
148.76,0
392.39,0
392.39,0
212.82,0
212.82,0
128.7,0
128.7,0
220.48,0
220.48,0
99.332,0
99.332,0
123.77,0
123.77,0
220.85,0
220.85,0
192.44,0
192.44,0
156.31,0
156.31,0
178.54,0
178.54,0
248.97,0
248.97,0
168.62,0
168.62,0
148.74,0
148.74,0
125.78,0
125.78,0
156.57,0
156.57,0
80.722,0
80.722,0
131.69,0
131.69,0
199.79,0
199.79,0
312.06,0
312.06,0
203.95,0
203.95,0
178.98,0
178.98,0
120.95,0
120.95,0
256.2,0
256.2,0
164.62,0
164.62,0
120.97,0
120.97,0
179.64,0
179.64,0
98.567,0
98.567,0
189.33,0
189.33,0
82.482,0
82.482,0
139.92,0
139.92,0
152.02,0
152.02,0
82.393,0
82.393,0
157.7,0
157.7,0
153.27,0
153.27,0
143.04,0
143.04,0
85.214,0
85.214,0
230.35,0
230.35,0
110.21,0
110.21,0
121.93,0
121.93,0
233.85,0
233.85,0
162.58,0
162.58,0
195.1,0
195.1,0
138.54,0
138.54,0
222.97,0
222.97,0
192.45,0
192.45,0
177.84,0
177.84,0
97.467,0
97.467,0
140.84,0
140.84,0
190.39,0
190.39,0
107.89,0
107.89,0
163.17,0
163.17,0
282.9,0
282.9,0
175.03,0
175.03,0
185.94,0
185.94,0
150.48,0
150.48,0
135.08,0
135.08,0
122.76,0
122.76,0
142.35,0
142.35,0
184.88,0
184.88,0
122.06,0
122.06,0
235.41,0
235.41,0
222.36,0
222.36,0
135.63,0
135.63,0
19.408,0
19.408,0
27.203,0
27.203,0
184.5,0
184.5,0
70.681,0
70.681,0
119.61,0
119.61,0
63.863,0
63.863,0
212.98,0
212.98,0
95.078,0
95.078,0
164.41,0
164.41,0
76.904,0
76.904,0
79.229,0
79.229,0
196.12,0
196.12,0
194.7,0
194.7,0
149.49,0
149.49,0
110.88,0
110.88,0
68.012,0
68.012,0
67.382,0
67.382,0
675.24,0
675.24,0
548.95,0
548.95,0
560.59,0
560.59,0
373.65,0
373.65,0
301.49,0
301.49,0
509.49,0
509.49,0
564.31,0
564.31,0
601.34,0
601.34,0
281.89,0
281.89,0
276.69,0
276.69,0
188.82,0
188.82,0
327.95,0
327.95,0
249.57,0
249.57,0
233.73,0
233.73,0
122.67,0
122.67,0
211.94,0
211.94,0
270.16,0
270.16,0
514.8,0
514.8,0
719.08,0
719.08,0
622.21,0
622.21,0
525.61,0
525.61,0
732.83,0
732.83,0
769.58,0
769.58,0
1002.8,0
1002.8,0
1167.8,0
1167.8,0
875.34,0
875.34,0
858.39,0
858.39,0
612.95,0
612.95,0
3183.6,0
3183.6,0
5561.4,0
5561.4,0
4186.1,0
4186.1,0
7979.7,0
7979.7,0
7504.7,0
7504.7,0
7232,0
7232,0
6973.2,0
6973.2,0
5907.8,0
5907.8,0
5501.6,0
5501.6,0
4683.4,0
4683.4,0
4382.5,0
4382.5,0
4279.4,0
4279.4,0
3684.3,0
3684.3,0
4055.3,0
4055.3,0
2310.9,0
2310.9,0
2606.8,0
2606.8,0
2412.7,0
2412.7,0
1317.6,0
1317.6,0
1799.5,0
1799.5,0
1619.9,0
1619.9,0
2227.5,0
2227.5,0
2450.2,0
2450.2,0
3892.9,0
3892.9,0
2831.4,0
2831.4,0
2283.6,0
2283.6,0
2371.9,0
2371.9,0
2323.2,0
2323.2,0
1275.1,0
1275.1,0
723.93,0
723.93,0
1384.5,0
1384.5,0
912.66,0
912.66,0
931.26,0
931.26,0
1055.1,0
1055.1,0
502.84,0
502.84,0
367.15,0
367.15,0
356.43,0
356.43,0
406.94,0
406.94,0
313.9,0
313.9,0
302.05,0
302.05,0
182.16,0
182.16,0
178.2,0
178.2,0
193.03,0
193.03,0
33.921,0
33.921,0
16.921,0
16.921,0
86.888,0
86.888,0
113.45,0
113.45,0
52.158,0
52.158,0
68.293,0
68.293,0
112.7,0
112.7,0
55.477,0
55.477,0
33.45,0
33.45,0
174.69,0
174.69,0
116.48,0
116.48,0
192.29,0
192.29,0
157.28,0
157.28,0
177.57,0
177.57,0
151.51,0
151.51,0
123.59,0
123.59,0
119.14,0
119.14,0
119.63,0
119.63,0
194.28,0
194.28,0
228.28,0
228.28,0
272.08,0
272.08,0
284.37,0
284.37,0
532.38,0
532.38,0
423.29,0
423.29,0
655.42,0
655.42,0
602.31,0
602.31,0
530.64,0
530.64,0
920.84,0
920.84,0
915.88,0
915.88,0
718.67,0
718.67,0
552.84,0
552.84,0
426.94,0
426.94,0
558.16,0
558.16,0
692.41,0
692.41,0
903.34,0
903.34,0
912.16,0
912.16,0
835.67,0
835.67,0
1709.9,0
1709.9,0
1034.8,0
1034.8,0
874.28,0
874.28,0
711.07,0
711.07,0
376.39,0
376.39,0
383.42,0
383.42,0
498.75,0
498.75,0
400.61,0
400.61,0
228.1,0
228.1,0
255.8,0
255.8,0
266.9,0
266.9,0
224.35,0
224.35,0
176.55,0
176.55,0
163.6,0
163.6,0
138.08,0
138.08,0
164.97,0
164.97,0
270.76,0
270.76,0
276.41,0
276.41,0
1159.4,0
1159.4,0
857.04,0
857.04,0
550.36,0
550.36,0
1464.8,0
1464.8,0
1443.5,0
1443.5,0
1314.4,0
1314.4,0
2632.5,0
2632.5,0
2990.9,0
2990.9,0
2665.7,0
2665.7,0
2973.2,0
2973.2,0
2772.8,0
2772.8,0
3795.6,0
3795.6,0
3408.1,0
3408.1,0
2515.5,0
2515.5,0
2321.7,0
2321.7,0
1928.1,0
1928.1,0
1137.8,0
1137.8,0
1018.2,0
1018.2,0
1109.7,0
1109.7,0
1190.6,0
1190.6,0
1206.5,0
1206.5,0
850.36,0
850.36,0
2478.5,0
2478.5,0
2040.4,0
2040.4,0
2017.2,0
2017.2,0
1298.8,0
1298.8,0
889.55,0
889.55,0
2279.1,0
2279.1,0
2948.3,0
2948.3,0
2260.9,0
2260.9,0
1634,0
1634,0
872.77,0
872.77,0
1575.9,0
1575.9,0
1700.1,0
1700.1,0
1512.7,0
1512.7,0
1558.4,0
1558.4,0
1108,0
1108,0
827.69,0
827.69,0
731.03,0
731.03,0
694.9,0
694.9,0
762.68,0
762.68,0
829.81,0
829.81,0
759.4,0
759.4,0
978.71,0
978.71,0
993.24,0
993.24,0
821.68,0
821.68,0
787.24,0
787.24,0
588.31,0
588.31,0
488.73,0
488.73,0
1062.7,0
1062.7,0
487.31,0
487.31,0
591.49,0
591.49,0
792.07,0
792.07,0
645.69,0
645.69,0
805.87,0
805.87,0
891.66,0
891.66,0
737.26,0
737.26,0
501.47,0
501.47,0
576.54,0
576.54,0
387.57,0
387.57,0
512.06,0
512.06,0
814.97,0
814.97,0
887.23,0
887.23,0
547.06,0
547.06,0
715.55,0
715.55,0
826.05,0
826.05,0
484.97,0
484.97,0
339.86,0
339.86,0
366.83,0
366.83,0
201.65,0
201.65,0
196.33,0
196.33,0
382.01,0
382.01,0
525.65,0
525.65,0
792,0
792,0
833.79,0
833.79,0
779.93,0
779.93,0
877.54,0
877.54,0
1055.8,0
1055.8,0
653.71,0
653.71,0
838.04,0
838.04,0
706.29,0
706.29,0
470.39,0
470.39,0
497.23,0
497.23,0
431.17,0
431.17,0
336.02,0
336.02,0
299.47,0
299.47,0
349.71,0
349.71,0
413.69,0
413.69,0
291.8,0
291.8,0
380.99,0
380.99,0
405.92,0
405.92,0
207.13,0
207.13,0
255.66,0
255.66,0
349.63,0
349.63,0
364.17,0
364.17,0
1064.9,0
1064.9,0
711.42,0
711.42,0
730.76,0
730.76,0
1092.2,0
1092.2,0
1075.1,0
1075.1,0
650.14,0
650.14,0
558.25,0
558.25,0
269.45,0
269.45,0
306.54,0
306.54,0
353.23,0
353.23,0
559.4,0
559.4,0
555.74,0
555.74,0
587.22,0
587.22,0
513.41,0
513.41,0
522.07,0
522.07,0
358.44,0
358.44,0
444.37,0
444.37,0
203.48,0
203.48,0
257.18,0
257.18,0
317.12,0
317.12,0
147.9,0
147.9,0
110.03,0
110.03,0
242.82,0
242.82,0
389.48,0
389.48,0
942.77,0
942.77,0
1096.1,0
1096.1,0
1012.9,0
1012.9,0
1319.8,0
1319.8,0
880.48,0
880.48,0
1151.9,0
1151.9,0
757.21,0
757.21,0
46.679,0
46.679,0
5.1495,0
5.1495,0
12.286,0
12.286,0
24.229,0
24.229,0
80.586,0
80.586,0
48.675,0
48.675,0
21.67,0
21.67,0
117.17,0
117.17,0
127.9,0
127.9,0
57.406,0
57.406,0
40.096,0
40.096,0
48.485,0
48.485,0
66.412,0
66.412,0
85.021,0
85.021,0
25.448,0
25.448,0
88.766,0
88.766,0
47.163,0
47.163,0
14.832,0
14.832,0
158.18,0
158.18,0
1.9154,0
1.9154,0
15.724,0
15.724,0
11.397,0
11.397,0
65.378,0
65.378,0
13.911,0
13.911,0
58.875,0
58.875,0
194.56,0
194.56,0
255.71,0
255.71,0
165.13,0
165.13,0
11.519,0
11.519,0
40.464,0
40.464,0
142.4,0
142.4,0
13.434,0
13.434,0
40.369,0
40.369,0
35.235,0
35.235,0
36.423,0
36.423,0
130.45,0
130.45,0
39.822,0
39.822,0
96.723,0
96.723,0
121.95,0
121.95,0
8.4026,0
8.4026,0
31.652,0
31.652,0
140.81,0
140.81,0
53.165,0
53.165,0
200.68,0
200.68,0
253.06,0
253.06,0
326.28,0
326.28,0
204.4,0
204.4,0
31.08,0
31.08,0
99.091,0
99.091,0
149.75,0
149.75,0
53.713,0
53.713,0
36.196,0
36.196,0
56.592,0
56.592,0
18.758,0
18.758,0
9.2597,0
9.2597,0
74.658,0
74.658,0
134.79,0
134.79,0
70.3,0
70.3,0
200.07,0
200.07,0
326.56,0
326.56,0
399.06,0
399.06,0
252.9,0
252.9,0
84.542,0
84.542,0
63.428,0
63.428,0
188.69,0
188.69,0
264.61,0
264.61,0
8.4416,0
8.4416,0
19.844,0
19.844,0
81.814,0
81.814,0
7.9173,0
7.9173,0
11.823,0
11.823,0
69.669,0
69.669,0
100.86,0
100.86,0
34.125,0
34.125,0
39.54,0
39.54,0
35.673,0
35.673,0
4.2098,0
4.2098,0
4.3521,0
4.3521,0
38.776,0
38.776,0
50.24,0
50.24,0
18.423,0
18.423,0
18.075,0
18.075,0
89.964,0
89.964,0
9.4108,0
9.4108,0
177.1,0
177.1,0
28.924,0
28.924,0
169.65,0
169.65,0
192.39,0
192.39,0
12.575,0
12.575,0
8.2079,0
8.2079,0
3.3179,0
3.3179,0
71.714,0
71.714,0
127.25,0
127.25,0
35.972,0
35.972,0
1.4674,0
1.4674,0
81.868,0
81.868,0
57.877,0
57.877,0
83.37,0
83.37,0
141.28,0
141.28,0
39.759,0
39.759,0
352.35,0
352.35,0
6.6193,0
6.6193,0
68.999,0
68.999,0
69.337,0
69.337,0
157.98,0
157.98,0
94.26,0
94.26,0
73.246,0
73.246,0
604.03,0
604.03,0
308.86,0
308.86,0
71.732,0
71.732,0
129.16,0
129.16,0
101.13,0
101.13,0
165.65,0
165.65,0
15.568,0
15.568,0
274.85,0
274.85,0
54,0
54,0
223.58,0
223.58,0
23.612,0
23.612,0
71.2,0
71.2,0
271.76,0
271.76,0
3.5172,0
3.5172,0
60.525,0
60.525,0
35.609,0
35.609,0
34.297,0
34.297,0
67.631,0
67.631,0
55.066,0
55.066,0
49.624,0
49.624,0
223.95,0
223.95,0
141.38,0
141.38,0
110.82,0
110.82,0
24.286,0
24.286,0
85.569,0
85.569,0
24.374,0
24.374,0
69.206,0
69.206,0
20.869,0
20.869,0
51.335,0
51.335,0
103.03,0
103.03,0
37.397,0
37.397,0
124.41,0
124.41,0
221.88,0
221.88,0
5.8914,0
5.8914,0
38.877,0
38.877,0
122.3,0
122.3,0
121.36,0
121.36,0
50.118,0
50.118,0
25.017,0
25.017,0
58.285,0
58.285,0
104.36,0
104.36,0
207.32,0
207.32,0
14.169,0
14.169,0
27.6,0
27.6,0
245.42,0
245.42,0
26.218,0
26.218,0
44.092,0
44.092,0
6.5317,0
6.5317,0
4.6779,0
4.6779,0
28.519,0
28.519,0
50.682,0
50.682,0
39.406,0
39.406,0
174.29,0
174.29,0
118.56,0
118.56,0
199.93,0
199.93,0
44.612,0
44.612,0
6.4388,0
6.4388,0
58.181,0
58.181,0
18.943,0
18.943,0
4.0883,0
4.0883,0
83.024,0
83.024,0
465.6,0
465.6,0
312.03,0
312.03,0
381.92,0
381.92,0
337.84,0
337.84,0
668.68,0
668.68,0
471.32,0
471.32,0
813.11,0
813.11,0
63.236,0
63.236,0
24.465,0
24.465,0
13.472,0
13.472,0
48.357,0
48.357,0
4.8639,0
4.8639,0
10.434,0
10.434,0
42.76,0
42.76,0
18.612,0
18.612,0
118.17,0
118.17,0
35.398,0
35.398,0
3.2416,0
3.2416,0
124.87,0
124.87,0
22.77,0
22.77,0
93.543,0
93.543,0
10.595,0
10.595,0
173.25,0
173.25,0
2.8112,0
2.8112,0
35.847,0
35.847,0
9.6973,0
9.6973,0
200.21,0
200.21,0
74.854,0
74.854,0
48.227,0
48.227,0
63.672,0
63.672,0
268.66,0
268.66,0
0.23055,0
0.23055,0
9.2755,0
9.2755,0
18.453,0
18.453,0
22.971,0
22.971,0
71.767,0
71.767,0
126.3,0
126.3,0
45.203,0
45.203,0
47.831,0
47.831,0
85.36,0
85.36,0
38.566,0
38.566,0
8.1217,0
8.1217,0
126.32,0
126.32,0
31.02,0
31.02,0
67.346,0
67.346,0
132.16,0
132.16,0
6.0506,0
6.0506,0
27.56,0
27.56,0
28.519,0
28.519,0
108.91,0
108.91,0
92.259,0
92.259,0
71.236,0
71.236,0
3.5791,0
3.5791,0
38.552,0
38.552,0
0.10311,0
0.10311,0
33.183,0
33.183,0
104.59,0
104.59,0
30.796,0
30.796,0
49.708,0
49.708,0
41.043,0
41.043,0
19.555,0
19.555,0
89.04,0
89.04,0
42.721,0
42.721,0
105.26,0
105.26,0
36.587,0
36.587,0
19.425,0
19.425,0
34.911,0
34.911,0
41.226,0
41.226,0
8.0616,0
8.0616,0
105.6,0
105.6,0
117.79,0
117.79,0
71.535,0
71.535,0
99.976,0
99.976,0
16.751,0
16.751,0
80.594,0
80.594,0
121.46,0
121.46,0
64.393,0
64.393,0
52.499,0
52.499,0
169.86,0
169.86,0
70.113,0
70.113,0
46.753,0
46.753,0
43.202,0
43.202,0
31.927,0
31.927,0
191.64,0
191.64,0
214.85,0
214.85,0
239.37,0
239.37,0
71.204,0
71.204,0
5.8646,0
5.8646,0
49.309,0
49.309,0
140.38,0
140.38,0
225.36,0
225.36,0
461.46,0
461.46,0
395.42,0
395.42,0
335.23,0
335.23,0
495.14,0
495.14,0
394.09,0
394.09,0
357.65,0
357.65,0
316.23,0
316.23,0
564.37,0
564.37,0
276.08,0
276.08,0
182.82,0
182.82,0
326.12,0
326.12,0
362.18,0
362.18,0
210.89,0
210.89,0
278.66,0
278.66,0
335.94,0
335.94,0
194.14,0
194.14,0
175.87,0
175.87,0
381.83,0
381.83,0
165.35,0
165.35,0
195.65,0
195.65,0
170.42,0
170.42,0
256.39,0
256.39,0
149.76,0
149.76,0
133.81,0
133.81,0
420.28,0
420.28,0
222.18,0
222.18,0
205.45,0
205.45,0
171.55,0
171.55,0
244.7,0
244.7,0
237.51,0
237.51,0
369.05,0
369.05,0
438.7,0
438.7,0
332.43,0
332.43,0
390.38,0
390.38,0
534.17,0
534.17,0
1235.3,0
1235.3,0
1019.8,0
1019.8,0
1090.1,0
1090.1,0
524.9,0
524.9,0
854.77,0
854.77,0
1019.1,0
1019.1,0
442.9,0
442.9,0
361.42,0
361.42,0
452.9,0
452.9,0
482.09,0
482.09,0
460.04,0
460.04,0
378.82,0
378.82,0
386.66,0
386.66,0
461.4,0
461.4,0
410.41,0
410.41,0
1192.2,0
1192.2,0
1149.4,0
1149.4,0
843.37,0
843.37,0
482.7,0
482.7,0
536.35,0
536.35,0
265.73,0
265.73,0
199.04,0
199.04,0
193.16,0
193.16,0
498.88,0
498.88,0
500.13,0
500.13,0
380.61,0
380.61,0
257.15,0
257.15,0
583.63,0
583.63,0
676.53,0
676.53,0
591.08,0
591.08,0
482.04,0
482.04,0
259.27,0
259.27,0
550.14,0
550.14,0
549.71,0
549.71,0
222.01,0
222.01,0
106.79,0
106.79,0
172.15,0
172.15,0
174.45,0
174.45,0
263.53,0
263.53,0
397.02,0
397.02,0
321.31,0
321.31,0
721.76,0
721.76,0
575.72,0
575.72,0
455.93,0
455.93,0
364.66,0
364.66,0
525.17,0
525.17,0
525.6,0
525.6,0
333.94,0
333.94,0
551.89,0
551.89,0
493.9,0
493.9,0
628.72,0
628.72,0
544.47,0
544.47,0
574.25,0
574.25,0
434.09,0
434.09,0
220.61,0
220.61,0
205.35,0
205.35,0
85.988,0
85.988,0
22.15,0
22.15,0
181.38,0
181.38,0
60.226,0
60.226,0
198.08,0
198.08,0
222.84,0
222.84,0
140.61,0
140.61,0
191.86,0
191.86,0
390.63,0
390.63,0
387.12,0
387.12,0
163.89,0
163.89,0
254.62,0
254.62,0
147.48,0
147.48,0
184.74,0
184.74,0
197.29,0
197.29,0
326.46,0
326.46,0
211.08,0
211.08,0
170.07,0
170.07,0
385.5,0
385.5,0
306.91,0
306.91,0
107.65,0
107.65,0
95.265,0
95.265,0
163.7,0
163.7,0
108.65,0
108.65,0
166.28,0
166.28,0
169.88,0
169.88,0
153.32,0
153.32,0
132.71,0
132.71,0
273.31,0
273.31,0
268.12,0
268.12,0
242.99,0
242.99,0
201.92,0
201.92,0
281.74,0
281.74,0
525.69,0
525.69,0
461.99,0
461.99,0
166.85,0
166.85,0
189.19,0
189.19,0
143.44,0
143.44,0
284.08,0
284.08,0
187.29,0
187.29,0
274.96,0
274.96,0
348.73,0
348.73,0
358.45,0
358.45,0
248.55,0
248.55,0
400.32,0
400.32,0
125.34,0
125.34,0
197.22,0
197.22,0
220.26,0
220.26,0
134.8,0
134.8,0
167.93,0
167.93,0
138.29,0
138.29,0
176.45,0
176.45,0
191.3,0
191.3,0
382,0
382,0
186.64,0
186.64,0
318.94,0
318.94,0
429.46,0
429.46,0
252.19,0
252.19,0
360.32,0
360.32,0
339.03,0
339.03,0
335.19,0
335.19,0
234.66,0
234.66,0
297.19,0
297.19,0
547.12,0
547.12,0
211.89,0
211.89,0
358.73,0
358.73,0
357.55,0
357.55,0
552.56,0
552.56,0
325.11,0
325.11,0
373.24,0
373.24,0
242.43,0
242.43,0
294.19,0
294.19,0
273.88,0
273.88,0
194.35,0
194.35,0
229.52,0
229.52,0
434.79,0
434.79,0
492.35,0
492.35,0
197.39,0
197.39,0
254.61,0
254.61,0
282.88,0
282.88,0
663.29,0
663.29,0
413.7,0
413.7,0
267.23,0
267.23,0
404.9,0
404.9,0
230.21,0
230.21,0
217.04,0
217.04,0
370.18,0
370.18,0
336.7,0
336.7,0
283.89,0
283.89,0
323.16,0
323.16,0
405.93,0
405.93,0
301.81,0
301.81,0
270.83,0
270.83,0
250.22,0
250.22,0
282.65,0
282.65,0
182.79,0
182.79,0
248.56,0
248.56,0
353.37,0
353.37,0
520.61,0
520.61,0
584.78,0
584.78,0
190.09,0
190.09,0
88.091,0
88.091,0
242.99,0
242.99,0
328.19,0
328.19,0
143.35,0
143.35,0
237.23,0
237.23,0
302.66,0
302.66,0
318.86,0
318.86,0
134.64,0
134.64,0
305.38,0
305.38,0
133.55,0
133.55,0
245.71,0
245.71,0
181.97,0
181.97,0
282.36,0
282.36,0
158.94,0
158.94,0
286.57,0
286.57,0
330.63,0
330.63,0
304.76,0
304.76,0
227.43,0
227.43,0
311.38,0
311.38,0
100.16,0
100.16,0
305.86,0
305.86,0
249.56,0
249.56,0
85.575,0
85.575,0
90.764,0
90.764,0
221.32,0
221.32,0
364.45,0
364.45,0
298.71,0
298.71,0
186,0
186,0
134.88,0
134.88,0
164.07,0
164.07,0
214.43,0
214.43,0
343.51,0
343.51,0
418.4,0
418.4,0
362.27,0
362.27,0
317.14,0
317.14,0
188.42,0
188.42,0
314.55,0
314.55,0
137.57,0
137.57,0
212.11,0
212.11,0
142.53,0
142.53,0
231,0
231,0
272.45,0
272.45,0
152.04,0
152.04,0
373.53,0
373.53,0
268.5,0
268.5,0
183.9,0
183.9,0
179.63,0
179.63,0
230.41,0
230.41,0
108.49,0
108.49,0
178.41,0
178.41,0
8.9672,0
8.9672,0
538.99,0
538.99,0
428.88,0
428.88,0
439.58,0
439.58,0
283.54,0
283.54,0
226.85,0
226.85,0
383.59,0
383.59,0
427.46,0
427.46,0
546.15,0
546.15,0
685.22,0
685.22,0
848.39,0
848.39,0
1634.2,0
1634.2,0
1056,0
1056,0
1127.1,0
1127.1,0
1647,0
1647,0
2700.6,0
2700.6,0
2859.4,0
2859.4,0
2396.2,0
2396.2,0
1171.6,0
1171.6,0
1014.8,0
1014.8,0
1051.9,0
1051.9,0
1124.8,0
1124.8,0
819.73,0
819.73,0
800.3,0
800.3,0
559.27,0
559.27,0
926.36,0
926.36,0
931.16,0
931.16,0
1327.8,0
1327.8,0
1033.6,0
1033.6,0
614.32,0
614.32,0
712.76,0
712.76,0
931.9,0
931.9,0
1040.3,0
1040.3,0
752.51,0
752.51,0
1211.2,0
1211.2,0
1413,0
1413,0
1086.3,0
1086.3,0
696.3,0
696.3,0
1197.6,0
1197.6,0
1188.8,0
1188.8,0
716.19,0
716.19,0
704.04,0
704.04,0
575.98,0
575.98,0
642.84,0
642.84,0
467.47,0
467.47,0
1180,0
1180,0
1169.4,0
1169.4,0
1055.6,0
1055.6,0
2148.3,0
2148.3,0
2444.3,0
2444.3,0
2191.8,0
2191.8,0
2461.2,0
2461.2,0
2270.3,0
2270.3,0
3135.1,0
3135.1,0
2833.1,0
2833.1,0
2032.3,0
2032.3,0
1838.5,0
1838.5,0
1571.4,0
1571.4,0
911.81,0
911.81,0
804.69,0
804.69,0
873.82,0
873.82,0
956.29,0
956.29,0
976.16,0
976.16,0
664.23,0
664.23,0
2048.9,0
2048.9,0
1670.4,0
1670.4,0
1641,0
1641,0
1050.1,0
1050.1,0
703.45,0
703.45,0
1859.2,0
1859.2,0
2426.7,0
2426.7,0
1850,0
1850,0
1321.5,0
1321.5,0
1093.2,0
1093.2,0
1220.1,0
1220.1,0
1712.7,0
1712.7,0
1072,0
1072,0
963.42,0
963.42,0
896.68,0
896.68,0
281.7,0
281.7,0
431.48,0
431.48,0
372.53,0
372.53,0
381.93,0
381.93,0
252.18,0
252.18,0
380.83,0
380.83,0
330.01,0
330.01,0
182.88,0
182.88,0
487.1,0
487.1,0
430.35,0
430.35,0
306.83,0
306.83,0
564.72,0
564.72,0
527.54,0
527.54,0
541.04,0
541.04,0
1118.8,0
1118.8,0
2502.4,0
2502.4,0
1971,0
1971,0
1118.6,0
1118.6,0
1009.2,0
1009.2,0
933.6,0
933.6,0
960.71,0
960.71,0
360.85,0
360.85,0
699.35,0
699.35,0
831.75,0
831.75,0
704.05,0
704.05,0
1050.8,0
1050.8,0
789.55,0
789.55,0
802.83,0
802.83,0
764.52,0
764.52,0
663.19,0
663.19,0
294.23,0
294.23,0
469.59,0
469.59,0
436.92,0
436.92,0
488.32,0
488.32,0
648.25,0
648.25,0
651.17,0
651.17,0
733.67,0
733.67,0
860.02,0
860.02,0
519.96,0
519.96,0
658.28,0
658.28,0
550.92,0
550.92,0
328.56,0
328.56,0
381.35,0
381.35,0
337.71,0
337.71,0
269.34,0
269.34,0
231.5,0
231.5,0
270.94,0
270.94,0
318.27,0
318.27,0
215.67,0
215.67,0
289.06,0
289.06,0
312.31,0
312.31,0
144.92,0
144.92,0
191.85,0
191.85,0
268.12,0
268.12,0
280.75,0
280.75,0
870.35,0
870.35,0
573.37,0
573.37,0
586.23,0
586.23,0
911.42,0
911.42,0
1149.2,0
1149.2,0
1014,0
1014,0
1428.1,0
1428.1,0
1742.6,0
1742.6,0
1416.2,0
1416.2,0
922.62,0
922.62,0
710.37,0
710.37,0
548.59,0
548.59,0
662.39,0
662.39,0
716.16,0
716.16,0
505.01,0
505.01,0
300.19,0
300.19,0
662.66,0
662.66,0
612.58,0
612.58,0
591.3,0
591.3,0
390.62,0
390.62,0
390.24,0
390.24,0
367.27,0
367.27,0
380.79,0
380.79,0
361.52,0
361.52,0
250.46,0
250.46,0
180.71,0
180.71,0
195.4,0
195.4,0
222.47,0
222.47,0
395.18,0
395.18,0
322.4,0
322.4,0
341.58,0
341.58,0
396.18,0
396.18,0
232.61,0
232.61,0
347.15,0
347.15,0
34.697,0
34.697,0
2.3217,0
2.3217,0
27.688,0
27.688,0
41.227,0
41.227,0
47.062,0
47.062,0
20.832,0
20.832,0
4.2793,0
4.2793,0
1.2286,0
1.2286,0
10.041,0
10.041,0
60.023,0
60.023,0
123.72,0
123.72,0
236.15,0
236.15,0
207.05,0
207.05,0
205.55,0
205.55,0
311.36,0
311.36,0
265.18,0
265.18,0
242.07,0
242.07,0
196.97,0
196.97,0
265.42,0
265.42,0
138.55,0
138.55,0
65.916,0
65.916,0
18.951,0
18.951,0
35.871,0
35.871,0
9.2619,0
9.2619,0
19.365,0
19.365,0
12.253,0
12.253,0
50.555,0
50.555,0
3.0586,0
3.0586,0
18.853,0
18.853,0
79.148,0
79.148,0
17.461,0
17.461,0
41.072,0
41.072,0
2.6056,0
2.6056,0
126.79,0
126.79,0
15.124,0
15.124,0
64.68,0
64.68,0
15.121,0
15.121,0
23.542,0
23.542,0
13.848,0
13.848,0
65.67,0
65.67,0
16.02,0
16.02,0
53.319,0
53.319,0
15.684,0
15.684,0
390.03,0
390.03,0
177.32,0
177.32,0
64.909,0
64.909,0
43.979,0
43.979,0
17.804,0
17.804,0
24.096,0
24.096,0
46.217,0
46.217,0
8.0991,0
8.0991,0
59.516,0
59.516,0
5.4456,0
5.4456,0
27.052,0
27.052,0
6.7316,0
6.7316,0
40.27,0
40.27,0
96.09,0
96.09,0
40.467,0
40.467,0
11.888,0
11.888,0
54.161,0
54.161,0
46.181,0
46.181,0
2.4212,0
2.4212,0
16.002,0
16.002,0
5.5621,0
5.5621,0
37.286,0
37.286,0
106.92,0
106.92,0
20.526,0
20.526,0
13.213,0
13.213,0
134.97,0
134.97,0
11.582,0
11.582,0
1.4461,0
1.4461,0
26.501,0
26.501,0
43.398,0
43.398,0
26.657,0
26.657,0
12.902,0
12.902,0
14.707,0
14.707,0
44.587,0
44.587,0
146.14,0
146.14,0
181.23,0
181.23,0
31.039,0
31.039,0
95.733,0
95.733,0
57.992,0
57.992,0
36.103,0
36.103,0
40.565,0
40.565,0
36.842,0
36.842,0
44.514,0
44.514,0
57.249,0
57.249,0
25.987,0
25.987,0
4.0674,0
4.0674,0
0.64434,0
0.64434,0
52.234,0
52.234,0
11.142,0
11.142,0
8.4002,0
8.4002,0
5.7768,0
5.7768,0
24.563,0
24.563,0
0.4017,0
0.4017,0
26.409,0
26.409,0
42.014,0
42.014,0
42.345,0
42.345,0
39.595,0
39.595,0
36.319,0
36.319,0
5.5338,0
5.5338,0
38.369,0
38.369,0
84.316,0
84.316,0
0.70142,0
0.70142,0
14.636,0
14.636,0
31.386,0
31.386,0
45.786,0
45.786,0
44.315,0
44.315,0
4.2633,0
4.2633,0
15.069,0
15.069,0
17.391,0
17.391,0
41.825,0
41.825,0
36.697,0
36.697,0
36.138,0
36.138,0
21.183,0
21.183,0
19.207,0
19.207,0
16.405,0
16.405,0
46.062,0
46.062,0
1.3071,0
1.3071,0
14.779,0
14.779,0
28.089,0
28.089,0
2.1173,0
2.1173,0
34.672,0
34.672,0
62.62,0
62.62,0
12.126,0
12.126,0
15.639,0
15.639,0
60.583,0
60.583,0
18.414,0
18.414,0
45.399,0
45.399,0
9.7001,0
9.7001,0
41.896,0
41.896,0
32.157,0
32.157,0
17.689,0
17.689,0
30.388,0
30.388,0
3.562,0
3.562,0
22.481,0
22.481,0
49.201,0
49.201,0
170.06,0
170.06,0
16.966,0
16.966,0
83.76,0
83.76,0
81.975,0
81.975,0
27.74,0
27.74,0
19.204,0
19.204,0
14.67,0
14.67,0
28.407,0
28.407,0
30.034,0
30.034,0
30.883,0
30.883,0
14.899,0
14.899,0
8.3286,0
8.3286,0
36.016,0
36.016,0
28.17,0
28.17,0
41.686,0
41.686,0
55.301,0
55.301,0
7.7531,0
7.7531,0
31.866,0
31.866,0
5.8082,0
5.8082,0
11.078,0
11.078,0
24.353,0
24.353,0
1.7453,0
1.7453,0
27.417,0
27.417,0
29.029,0
29.029,0
31.136,0
31.136,0
12.651,0
12.651,0
17.41,0
17.41,0
40.784,0
40.784,0
29.121,0
29.121,0
68.587,0
68.587,0
70.635,0
70.635,0
103.5,0
103.5,0
122.17,0
122.17,0
141.67,0
141.67,0
15.727,0
15.727,0
30.413,0
30.413,0
15.8,0
15.8,0
107.75,0
107.75,0
143,0
143,0
256.56,0
256.56,0
160.45,0
160.45,0
337.78,0
337.78,0
42.112,0
42.112,0
87.311,0
87.311,0
133.45,0
133.45,0
168.1,0
168.1,0
257.72,0
257.72,0
176.99,0
176.99,0
72.943,0
72.943,0
110.63,0
110.63,0
87.849,0
87.849,0
66.84,0
66.84,0
74.385,0
74.385,0
34.352,0
34.352,0
176.25,0
176.25,0
228.84,0
228.84,0
59.504,0
59.504,0
39.017,0
39.017,0
61.753,0
61.753,0
9.2676,0
9.2676,0
19.074,0
19.074,0
59.825,0
59.825,0
53.866,0
53.866,0
0.033801,0
0.033801,0
103.83,0
103.83,0
73.771,0
73.771,0
14.859,0
14.859,0
12.949,0
12.949,0
1.169,0
1.169,0
0.46989,0
0.46989,0
135.57,0
135.57,0
117.9,0
117.9,0
56.239,0
56.239,0
114.26,0
114.26,0
279.08,0
279.08,0
165.22,0
165.22,0
143.81,0
143.81,0
107.23,0
107.23,0
169.79,0
169.79,0
339.78,0
339.78,0
294.18,0
294.18,0
88.788,0
88.788,0
90.505,0
90.505,0
58.951,0
58.951,0
170.69,0
170.69,0
106.29,0
106.29,0
158.97,0
158.97,0
195.95,0
195.95,0
198.63,0
198.63,0
143.71,0
143.71,0
245.19,0
245.19,0
47.314,0
47.314,0
107.66,0
107.66,0
122.47,0
122.47,0
55.903,0
55.903,0
82.223,0
82.223,0
58.512,0
58.512,0
85.703,0
85.703,0
99.017,0
99.017,0
241.87,0
241.87,0
94.075,0
94.075,0
191.72,0
191.72,0
253.72,0
253.72,0
118.49,0
118.49,0
142.03,0
142.03,0
209.55,0
209.55,0
183.08,0
183.08,0
309.95,0
309.95,0
433.32,0
433.32,0
189.14,0
189.14,0
186.56,0
186.56,0
126.47,0
126.47,0
195.71,0
195.71,0
166.12,0
166.12,0
154.67,0
154.67,0
92.467,0
92.467,0
244.78,0
244.78,0
114.34,0
114.34,0
135.61,0
135.61,0
251.45,0
251.45,0
173.75,0
173.75,0
210.43,0
210.43,0
149.28,0
149.28,0
234.91,0
234.91,0
218.17,0
218.17,0
191.79,0
191.79,0
108.8,0
108.8,0
151.78,0
151.78,0
204.2,0
204.2,0
124.01,0
124.01,0
178.29,0
178.29,0
301.9,0
301.9,0
182.68,0
182.68,0
196.4,0
196.4,0
160.68,0
160.68,0
138.58,0
138.58,0
126.31,0
126.31,0
149.11,0
149.11,0
190.28,0
190.28,0
130.55,0
130.55,0
241.54,0
241.54,0
232.79,0
232.79,0
123.67,0
123.67,0
109.37,0
109.37,0
11.191,0
11.191,0
158.97,0
158.97,0
209.95,0
209.95,0
68.286,0
68.286,0
116.46,0
116.46,0
178.83,0
178.83,0
158.14,0
158.14,0
65.687,0
65.687,0
196.83,0
196.83,0
65.219,0
65.219,0
154.63,0
154.63,0
100.68,0
100.68,0
175.56,0
175.56,0
79.977,0
79.977,0
176.63,0
176.63,0
203.12,0
203.12,0
193.35,0
193.35,0
128.05,0
128.05,0
190.64,0
190.64,0
35.396,0
35.396,0
188.68,0
188.68,0
145.4,0
145.4,0
25.694,0
25.694,0
179.39,0
179.39,0
428.06,0
428.06,0
26.09,0
26.09,0
149.34,0
149.34,0
122.07,0
122.07,0
146.58,0
146.58,0
143.45,0
143.45,0
108.46,0
108.46,0
81.489,0
81.489,0
99.519,0
99.519,0
54.402,0
54.402,0
105.69,0
105.69,0
63.521,0
63.521,0
100,0
100,0
162.35,0
162.35,0
103.07,0
103.07,0
86.429,0
86.429,0
27.908,0
27.908,0
28.229,0
28.229,0
108.54,0
108.54,0
4.8844,0
4.8844,0
75.587,0
75.587,0
192.88,0
192.88,0
93.992,0
93.992,0
146.2,0
146.2,0
81.047,0
81.047,0
142.02,0
142.02,0
3.9975,0
3.9975,0
94.061,0
94.061,0
36.389,0
36.389,0
54.453,0
54.453,0
37.355,0
37.355,0
534.08,0
534.08,0
423.69,0
423.69,0
435.27,0
435.27,0
280.05,0
280.05,0
221.98,0
221.98,0
247.24,0
247.24,0
310.68,0
310.68,0
452.11,0
452.11,0
225.11,0
225.11,0
549.75,0
549.75,0
1298,0
1298,0
1911.3,0
1911.3,0
2577.3,0
2577.3,0
2663.4,0
2663.4,0
2871.2,0
2871.2,0
3052.1,0
3052.1,0
3184.1,0
3184.1,0
3259.4,0
3259.4,0
2075.8,0
2075.8,0
2210,0
2210,0
439.64,0
439.64,0
206.02,0
206.02,0
292.2,0
292.2,0
259.35,0
259.35,0
202.78,0
202.78,0
301.42,0
301.42,0
254.27,0
254.27,0
360.76,0
360.76,0
280.71,0
280.71,0
397.61,0
397.61,0
259.84,0
259.84,0
346.23,0
346.23,0
391.76,0
391.76,0
511.54,0
511.54,0
578.9,0
578.9,0
718.19,0
718.19,0
623.44,0
623.44,0
356.48,0
356.48,0
352.44,0
352.44,0
453.34,0
453.34,0
425.24,0
425.24,0
1739.1,0
1739.1,0
1960.4,0
1960.4,0
3224.3,0
3224.3,0
2365.8,0
2365.8,0
1909.2,0
1909.2,0
1968.7,0
1968.7,0
1881.8,0
1881.8,0
1017.2,0
1017.2,0
567.96,0
567.96,0
1102.5,0
1102.5,0
639.51,0
639.51,0
632.9,0
632.9,0
527.02,0
527.02,0
352.58,0
352.58,0
287.98,0
287.98,0
267.4,0
267.4,0
323.99,0
323.99,0
750.52,0
750.52,0
703.38,0
703.38,0
1046.5,0
1046.5,0
1111.8,0
1111.8,0
1623.8,0
1623.8,0
2670.5,0
2670.5,0
2824.3,0
2824.3,0
2378.2,0
2378.2,0
1130,0
1130,0
1012.7,0
1012.7,0
1034.5,0
1034.5,0
1102.2,0
1102.2,0
814.76,0
814.76,0
425.68,0
425.68,0
428.51,0
428.51,0
320.59,0
320.59,0
378.05,0
378.05,0
377.76,0
377.76,0
220.58,0
220.58,0
312.64,0
312.64,0
150.34,0
150.34,0
246.96,0
246.96,0
135.65,0
135.65,0
154.49,0
154.49,0
109.89,0
109.89,0
52.387,0
52.387,0
209.32,0
209.32,0
177.61,0
177.61,0
182.94,0
182.94,0
31.655,0
31.655,0
142.5,0
142.5,0
151.28,0
151.28,0
451.06,0
451.06,0
718.11,0
718.11,0
337.96,0
337.96,0
508.42,0
508.42,0
497.05,0
497.05,0
611.17,0
611.17,0
456.27,0
456.27,0
381.89,0
381.89,0
259.91,0
259.91,0
578.08,0
578.08,0
205.21,0
205.21,0
320.84,0
320.84,0
740.03,0
740.03,0
687.5,0
687.5,0
721.66,0
721.66,0
849.13,0
849.13,0
813.89,0
813.89,0
764.64,0
764.64,0
889.03,0
889.03,0
516.68,0
516.68,0
761.38,0
761.38,0
1108.7,0
1108.7,0
839.98,0
839.98,0
632.42,0
632.42,0
782.66,0
782.66,0
1175.7,0
1175.7,0
289.17,0
289.17,0
244.32,0
244.32,0
135.34,0
135.34,0
149.63,0
149.63,0
106.57,0
106.57,0
129.71,0
129.71,0
198.87,0
198.87,0
327.61,0
327.61,0
730.5,0
730.5,0
493.15,0
493.15,0
508.54,0
508.54,0
516.4,0
516.4,0
412.29,0
412.29,0
398.29,0
398.29,0
827.8,0
827.8,0
964.38,0
964.38,0
752.59,0
752.59,0
731.53,0
731.53,0
597.13,0
597.13,0
821.56,0
821.56,0
909.77,0
909.77,0
727.47,0
727.47,0
546.43,0
546.43,0
652.82,0
652.82,0
572.36,0
572.36,0
565.25,0
565.25,0
696.83,0
696.83,0
430.03,0
430.03,0
272.82,0
272.82,0
268.82,0
268.82,0
2474.1,0
2474.1,0
1939.5,0
1939.5,0
1101.8,0
1101.8,0
1019.7,0
1019.7,0
908.65,0
908.65,0
941.03,0
941.03,0
348.44,0
348.44,0
679.96,0
679.96,0
815.43,0
815.43,0
694.25,0
694.25,0
1045.2,0
1045.2,0
8.4343,0
8.4343,0
31.466,0
31.466,0
44.235,0
44.235,0
50.011,0
50.011,0
10.338,0
10.338,0
54.321,0
54.321,0
50.633,0
50.633,0
40.905,0
40.905,0
0.9681,0
0.9681,0
2.6366,0
2.6366,0
23.166,0
23.166,0
25.482,0
25.482,0
14.082,0
14.082,0
13.464,0
13.464,0
13.673,0
13.673,0
45.306,0
45.306,0
55.582,0
55.582,0
30.633,0
30.633,0
7.457,0
7.457,0
38.312,0
38.312,0
2.7544,0
2.7544,0
40.228,0
40.228,0
11.633,0
11.633,0
23.528,0
23.528,0
16.215,0
16.215,0
23.223,0
23.223,0
52.141,0
52.141,0
24.696,0
24.696,0
15.56,0
15.56,0
36.94,0
36.94,0
63.01,0
63.01,0
53.139,0
53.139,0
32.23,0
32.23,0
46.615,0
46.615,0
45.831,0
45.831,0
50.789,0
50.789,0
30.18,0
30.18,0
39.092,0
39.092,0
23.402,0
23.402,0
44.313,0
44.313,0
99.481,0
99.481,0
8.6316,0
8.6316,0
27.367,0
27.367,0
31.807,0
31.807,0
29.113,0
29.113,0
13.505,0
13.505,0
56.464,0
56.464,0
41.223,0
41.223,0
11.988,0
11.988,0
37.215,0
37.215,0
7.1258,0
7.1258,0
22.408,0
22.408,0
10.936,0
10.936,0
27.113,0
27.113,0
136.07,0
136.07,0
11.2,0
11.2,0
4.3458,0
4.3458,0
87.968,0
87.968,0
61.012,0
61.012,0
233.77,0
233.77,0
165.48,0
165.48,0
168.73,0
168.73,0
276.44,0
276.44,0
225,0
225,0
202.37,0
202.37,0
173.99,0
173.99,0
211.76,0
211.76,0
104.46,0
104.46,0
50.871,0
50.871,0
3.1194,0
3.1194,0
16.607,0
16.607,0
9.45,0
9.45,0
8.4288,0
8.4288,0
1.1956,0
1.1956,0
32.13,0
32.13,0
8.0946,0
8.0946,0
2.7829,0
2.7829,0
13.96,0
13.96,0
36.975,0
36.975,0
11.073,0
11.073,0
31.339,0
31.339,0
18.819,0
18.819,0
19.312,0
19.312,0
0.70936,0
0.70936,0
30.874,0
30.874,0
4.9036,0
4.9036,0
38.282,0
38.282,0
31.239,0
31.239,0
55.732,0
55.732,0
42.746,0
42.746,0
9.9618,0
9.9618,0
62.813,0
62.813,0
56.503,0
56.503,0
18.469,0
18.469,0
58.244,0
58.244,0
27.033,0
27.033,0
41.974,0
41.974,0
46.27,0
46.27,0
67.987,0
67.987,0
38.679,0
38.679,0
67.903,0
67.903,0
12.959,0
12.959,0
35.143,0
35.143,0
24.581,0
24.581,0
17.475,0
17.475,0
13.562,0
13.562,0
24.76,0
24.76,0
153.04,0
153.04,0
91.505,0
91.505,0
37.249,0
37.249,0
19.765,0
19.765,0
59.836,0
59.836,0
1.6671,0
1.6671,0
43.054,0
43.054,0
17.22,0
17.22,0
149.65,0
149.65,0
9.8632,0
9.8632,0
42.563,0
42.563,0
60.823,0
60.823,0
1.0107,0
1.0107,0
1.6134,0
1.6134,0
32.543,0
32.543,0
5.4639,0
5.4639,0
5.1378,0
5.1378,0
17.234,0
17.234,0
2.2051,0
2.2051,0
111.19,0
111.19,0
42.814,0
42.814,0
36.556,0
36.556,0
31.024,0
31.024,0
10.296,0
10.296,0
135.52,0
135.52,0
21.738,0
21.738,0
72.019,0
72.019,0
17.297,0
17.297,0
66.953,0
66.953,0
16.879,0
16.879,0
37.233,0
37.233,0
39.027,0
39.027,0
54.609,0
54.609,0
43.908,0
43.908,0
45.151,0
45.151,0
90.885,0
90.885,0
16.64,0
16.64,0
56.274,0
56.274,0
58.241,0
58.241,0
32.609,0
32.609,0
17.004,0
17.004,0
5.0219,0
5.0219,0
63.388,0
63.388,0
14.432,0
14.432,0
18.366,0
18.366,0
22.914,0
22.914,0
0.15339,0
0.15339,0
25.188,0
25.188,0
73.741,0
73.741,0
5.1156,0
5.1156,0
64.848,0
64.848,0
81.485,0
81.485,0
98.368,0
98.368,0
6.2994,0
6.2994,0
43.366,0
43.366,0
368.48,0
368.48,0
220.83,0
220.83,0
215.16,0
215.16,0
405.75,0
405.75,0
204.54,0
204.54,0
278.04,0
278.04,0
164.18,0
164.18,0
248.42,0
248.42,0
389.81,0
389.81,0
345.44,0
345.44,0
200.23,0
200.23,0
264.74,0
264.74,0
309.76,0
309.76,0
270,0
270,0
253.73,0
253.73,0
130.46,0
130.46,0
96.982,0
96.982,0
59.277,0
59.277,0
75.579,0
75.579,0
9.5663,0
9.5663,0
124.31,0
124.31,0
73.987,0
73.987,0
104.55,0
104.55,0
29.068,0
29.068,0
57.51,0
57.51,0
127.14,0
127.14,0
155.06,0
155.06,0
44.046,0
44.046,0
9.2798,0
9.2798,0
64.039,0
64.039,0
55.77,0
55.77,0
29.54,0
29.54,0
29.468,0
29.468,0
117.96,0
117.96,0
234.07,0
234.07,0
228.87,0
228.87,0
567.59,0
567.59,0
214.06,0
214.06,0
142.28,0
142.28,0
206.07,0
206.07,0
224.87,0
224.87,0
226.8,0
226.8,0
176.21,0
176.21,0
175.82,0
175.82,0
209.59,0
209.59,0
197.61,0
197.61,0
621.79,0
621.79,0
579.55,0
579.55,0
269.04,0
269.04,0
231.22,0
231.22,0
287.41,0
287.41,0
108.96,0
108.96,0
78.804,0
78.804,0
59.373,0
59.373,0
45.459,0
45.459,0
8.3058,0
8.3058,0
51.251,0
51.251,0
89.133,0
89.133,0
120.93,0
120.93,0
197.72,0
197.72,0
138.81,0
138.81,0
40.256,0
40.256,0
85.371,0
85.371,0
60.551,0
60.551,0
41.9,0
41.9,0
51.304,0
51.304,0
14.669,0
14.669,0
105.97,0
105.97,0
59.518,0
59.518,0
3.0976,0
3.0976,0
42.376,0
42.376,0
4.831,0
4.831,0
36.736,0
36.736,0
42.925,0
42.925,0
58.701,0
58.701,0
113.07,0
113.07,0
41.464,0
41.464,0
52.281,0
52.281,0
43.375,0
43.375,0
277.84,0
277.84,0
83.126,0
83.126,0
129.95,0
129.95,0
180.16,0
180.16,0
121.33,0
121.33,0
102.16,0
102.16,0
133.8,0
133.8,0
157.25,0
157.25,0
143.85,0
143.85,0
71.91,0
71.91,0
95.226,0
95.226,0
170.55,0
170.55,0
206.33,0
206.33,0
175.42,0
175.42,0
84.276,0
84.276,0
75.969,0
75.969,0
142.47,0
142.47,0
41.799,0
41.799,0
140.23,0
140.23,0
46.237,0
46.237,0
71.53,0
71.53,0
118.65,0
118.65,0
68.371,0
68.371,0
33.805,0
33.805,0
67.387,0
67.387,0
86.693,0
86.693,0
53.792,0
53.792,0
5.8947,0
5.8947,0
7.4505,0
7.4505,0
64.511,0
64.511,0
58.133,0
58.133,0
191.42,0
191.42,0
179.29,0
179.29,0
171.91,0
171.91,0
189.45,0
189.45,0
149.7,0
149.7,0
150.5,0
150.5,0
166.48,0
166.48,0
187.87,0
187.87,0
155.36,0
155.36,0
173.15,0
173.15,0
184.28,0
184.28,0
202.33,0
202.33,0
238.7,0
238.7,0
221.37,0
221.37,0
204.05,0
204.05,0
157.54,0
157.54,0
206.69,0
206.69,0
188.71,0
188.71,0
67.023,0
67.023,0
47.419,0
47.419,0
71.627,0
71.627,0
76.754,0
76.754,0
62.368,0
62.368,0
74.595,0
74.595,0
74.91,0
74.91,0
148.83,0
148.83,0
183.97,0
183.97,0
154.88,0
154.88,0
153.86,0
153.86,0
104.82,0
104.82,0
108.91,0
108.91,0
156.21,0
156.21,0
133.2,0
133.2,0
69.977,0
69.977,0
86.964,0
86.964,0
141.33,0
141.33,0
73.656,0
73.656,0
125.37,0
125.37,0
232.14,0
232.14,0
135.79,0
135.79,0
144.06,0
144.06,0
114.62,0
114.62,0
548.31,0
548.31,0
436.11,0
436.11,0
447.75,0
447.75,0
288.59,0
288.59,0
231.01,0
231.01,0
406.23,0
406.23,0
452.73,0
452.73,0
524.66,0
524.66,0
638.32,0
638.32,0
745.01,0
745.01,0
1306,0
1306,0
1534,0
1534,0
1853,0
1853,0
2073.4,0
2073.4,0
2108.2,0
2108.2,0
2434.5,0
2434.5,0
2348.1,0
2348.1,0
2486.6,0
2486.6,0
2704.3,0
2704.3,0
2618.6,0
2618.6,0
175.61,0
175.61,0
267.37,0
267.37,0
352.69,0
352.69,0
397.28,0
397.28,0
391.16,0
391.16,0
570.86,0
570.86,0
756.92,0
756.92,0
448.24,0
448.24,0
209.26,0
209.26,0
452.49,0
452.49,0
389.3,0
389.3,0
280.39,0
280.39,0
240.09,0
240.09,0
212.02,0
212.02,0
250.19,0
250.19,0
113.25,0
113.25,0
308.65,0
308.65,0
351.6,0
351.6,0
392.07,0
392.07,0
345.08,0
345.08,0
667.71,0
667.71,0
628.27,0
628.27,0
741.35,0
741.35,0
687.06,0
687.06,0
752.31,0
752.31,0
938.93,0
938.93,0
558.15,0
558.15,0
709.62,0
709.62,0
386.12,0
386.12,0
313.96,0
313.96,0
162,0
162,0
149.3,0
149.3,0
254.86,0
254.86,0
470.9,0
470.9,0
324.87,0
324.87,0
220.74,0
220.74,0
409.75,0
409.75,0
298.54,0
298.54,0
167.53,0
167.53,0
105.66,0
105.66,0
132.63,0
132.63,0
136.83,0
136.83,0
186.03,0
186.03,0
167.27,0
167.27,0
133.87,0
133.87,0
153.08,0
153.08,0
115.92,0
115.92,0
136.69,0
136.69,0
819,0
819,0
957.86,0
957.86,0
738.4,0
738.4,0
552.56,0
552.56,0
668.69,0
668.69,0
582.18,0
582.18,0
650.92,0
650.92,0
930.96,0
930.96,0
1018.4,0
1018.4,0
1187.6,0
1187.6,0
895.04,0
895.04,0
858.48,0
858.48,0
925.63,0
925.63,0
682.98,0
682.98,0
567.39,0
567.39,0
371.17,0
371.17,0
307.28,0
307.28,0
323.4,0
323.4,0
309.02,0
309.02,0
136.6,0
136.6,0
174.25,0
174.25,0
211.98,0
211.98,0
202.33,0
202.33,0
370,0
370,0
430.31,0
430.31,0
328.42,0
328.42,0
297.94,0
297.94,0
464.64,0
464.64,0
317.29,0
317.29,0
245.36,0
245.36,0
551.48,0
551.48,0
864.61,0
864.61,0
866.35,0
866.35,0
7.7311,0
7.7311,0
30.622,0
30.622,0
43.75,0
43.75,0
49.282,0
49.282,0
13.407,0
13.407,0
6.4382,0
6.4382,0
29.023,0
29.023,0
46.668,0
46.668,0
34.685,0
34.685,0
23.452,0
23.452,0
52.626,0
52.626,0
18.207,0
18.207,0
9.2716,0
9.2716,0
25.691,0
25.691,0
8.9072,0
8.9072,0
8.2195,0
8.2195,0
46.517,0
46.517,0
43.471,0
43.471,0
7.7516,0
7.7516,0
19.306,0
19.306,0
19.315,0
19.315,0
16.809,0
16.809,0
75.063,0
75.063,0
39.723,0
39.723,0
28.103,0
28.103,0
14.019,0
14.019,0
40.75,0
40.75,0
3.641,0
3.641,0
48.505,0
48.505,0
100.99,0
100.99,0
9.6638,0
9.6638,0
11.977,0
11.977,0
4.6049,0
4.6049,0
7.9634,0
7.9634,0
30.982,0
30.982,0
11.509,0
11.509,0
46.838,0
46.838,0
73.417,0
73.417,0
36.393,0
36.393,0
33.505,0
33.505,0
35.982,0
35.982,0
27.675,0
27.675,0
26.535,0
26.535,0
1.486,0
1.486,0
2.9369,0
2.9369,0
41.463,0
41.463,0
66.521,0
66.521,0
44.556,0
44.556,0
37.491,0
37.491,0
53.658,0
53.658,0
3.0998,0
3.0998,0
21.88,0
21.88,0
12.539,0
12.539,0
57.804,0
57.804,0
34.635,0
34.635,0
47.448,0
47.448,0
16.828,0
16.828,0
12.027,0
12.027,0
30.919,0
30.919,0
7.1864,0
7.1864,0
28.843,0
28.843,0
26.598,0
26.598,0
38.994,0
38.994,0
38.934,0
38.934,0
85.475,0
85.475,0
17.525,0
17.525,0
10.938,0
10.938,0
28.221,0
28.221,0
59.895,0
59.895,0
9.2237,0
9.2237,0
40.093,0
40.093,0
45.494,0
45.494,0
49.003,0
49.003,0
51.494,0
51.494,0
24.143,0
24.143,0
34.296,0
34.296,0
38.451,0
38.451,0
12.854,0
12.854,0
0.79302,0
0.79302,0
22.918,0
22.918,0
27.222,0
27.222,0
13.779,0
13.779,0
43.836,0
43.836,0
6.8902,0
6.8902,0
39.719,0
39.719,0
39.81,0
39.81,0
35.084,0
35.084,0
32.628,0
32.628,0
82.238,0
82.238,0
15.295,0
15.295,0
4.1723,0
4.1723,0
13.788,0
13.788,0
38.217,0
38.217,0
28.553,0
28.553,0
113.29,0
113.29,0
29.581,0
29.581,0
13.487,0
13.487,0
32.29,0
32.29,0
13.01,0
13.01,0
64.485,0
64.485,0
30.776,0
30.776,0
76.844,0
76.844,0
93.887,0
93.887,0
112.84,0
112.84,0
0.9826,0
0.9826,0
39.685,0
39.685,0
12.609,0
12.609,0
50.849,0
50.849,0
54.656,0
54.656,0
117.23,0
117.23,0
12.03,0
12.03,0
34.299,0
34.299,0
74.262,0
74.262,0
61.069,0
61.069,0
138.46,0
138.46,0
36.417,0
36.417,0
155.85,0
155.85,0
134.39,0
134.39,0
120.15,0
120.15,0
207.86,0
207.86,0
247.79,0
247.79,0
206,0
206,0
248.3,0
248.3,0
67.965,0
67.965,0
137.5,0
137.5,0
143.78,0
143.78,0
138.44,0
138.44,0
139.57,0
139.57,0
148.8,0
148.8,0
109.71,0
109.71,0
166.69,0
166.69,0
252.34,0
252.34,0
317.16,0
317.16,0
324.76,0
324.76,0
336.43,0
336.43,0
313.26,0
313.26,0
292.33,0
292.33,0
224.91,0
224.91,0
124.75,0
124.75,0
331.57,0
331.57,0
123.76,0
123.76,0
82.147,0
82.147,0
68.267,0
68.267,0
123.51,0
123.51,0
34.899,0
34.899,0
90.301,0
90.301,0
134.9,0
134.9,0
55.318,0
55.318,0
56.516,0
56.516,0
63.099,0
63.099,0
117.07,0
117.07,0
114.71,0
114.71,0
105.39,0
105.39,0
124.97,0
124.97,0
184.59,0
184.59,0
101.85,0
101.85,0
197.97,0
197.97,0
223.25,0
223.25,0
279.45,0
279.45,0
160.7,0
160.7,0
122.02,0
122.02,0
198.69,0
198.69,0
317.78,0
317.78,0
157.16,0
157.16,0
177.14,0
177.14,0
230.73,0
230.73,0
183.42,0
183.42,0
178.54,0
178.54,0
188.87,0
188.87,0
93.96,0
93.96,0
91.944,0
91.944,0
72.269,0
72.269,0
92.986,0
92.986,0
88.233,0
88.233,0
165.98,0
165.98,0
70.946,0
70.946,0
47.895,0
47.895,0
45.06,0
45.06,0
82.893,0
82.893,0
90.11,0
90.11,0
220.76,0
220.76,0
159.36,0
159.36,0
144.34,0
144.34,0
15.477,0
15.477,0
63.199,0
63.199,0
65.324,0
65.324,0
79.232,0
79.232,0
143.46,0
143.46,0
167.4,0
167.4,0
250.39,0
250.39,0
129.3,0
129.3,0
94.823,0
94.823,0
140.49,0
140.49,0
194.95,0
194.95,0
133.36,0
133.36,0
288.48,0
288.48,0
65.492,0
65.492,0
146.44,0
146.44,0
203.22,0
203.22,0
186.87,0
186.87,0
133.12,0
133.12,0
188.15,0
188.15,0
490.93,0
490.93,0
406.72,0
406.72,0
427.55,0
427.55,0
261.08,0
261.08,0
2616.7,0
2616.7,0
2670,0
2670,0
2850,0
2850,0
3073.2,0
3073.2,0
3113,0
3113,0
3232.1,0
3232.1,0
2031.8,0
2031.8,0
2162.3,0
2162.3,0
2618.9,0
2618.9,0
1605.8,0
1605.8,0
2084.4,0
2084.4,0
2138.7,0
2138.7,0
1694.3,0
1694.3,0
915.34,0
915.34,0
1002.4,0
1002.4,0
596.49,0
596.49,0
670.45,0
670.45,0
884.8,0
884.8,0
981.26,0
981.26,0
711.26,0
711.26,0
1140.7,0
1140.7,0
1340.5,0
1340.5,0
1024.7,0
1024.7,0
656.97,0
656.97,0
1130.3,0
1130.3,0
1120.7,0
1120.7,0
672.36,0
672.36,0
658.23,0
658.23,0
537.09,0
537.09,0
393.55,0
393.55,0
290.24,0
290.24,0
402.45,0
402.45,0
506.11,0
506.11,0
699.54,0
699.54,0
42.147,0
42.147,0
145.31,0
145.31,0
155.38,0
155.38,0
418.65,0
418.65,0
687.08,0
687.08,0
322.97,0
322.97,0
479.18,0
479.18,0
463.3,0
463.3,0
587.73,0
587.73,0
430.08,0
430.08,0
360.1,0
360.1,0
236.74,0
236.74,0
482.7,0
482.7,0
430.09,0
430.09,0
559.78,0
559.78,0
682.49,0
682.49,0
813.2,0
813.2,0
779.2,0
779.2,0
730.75,0
730.75,0
845.05,0
845.05,0
488.32,0
488.32,0
719.75,0
719.75,0
814.02,0
814.02,0
628.9,0
628.9,0
657.53,0
657.53,0
433.5,0
433.5,0
514.29,0
514.29,0
479.54,0
479.54,0
376.42,0
376.42,0
474.45,0
474.45,0
760.49,0
760.49,0
685.26,0
685.26,0
289.8,0
289.8,0
442.43,0
442.43,0
430.1,0
430.1,0
470.35,0
470.35,0
604.73,0
604.73,0
621.82,0
621.82,0
691.86,0
691.86,0
817.45,0
817.45,0
475.45,0
475.45,0
13.548,0
13.548,0
10.064,0
10.064,0
23.198,0
23.198,0
34.276,0
34.276,0
39.966,0
39.966,0
143.01,0
143.01,0
182.04,0
182.04,0
137.09,0
137.09,0
20.725,0
20.725,0
166.82,0
166.82,0
118.39,0
118.39,0
69.658,0
69.658,0
19.323,0
19.323,0
51.899,0
51.899,0
59.604,0
59.604,0
44.624,0
44.624,0
6.0581,0
6.0581,0
27.674,0
27.674,0
19.711,0
19.711,0
2.5769,0
2.5769,0
109.07,0
109.07,0
5.0818,0
5.0818,0
30.916,0
30.916,0
11.036,0
11.036,0
156.95,0
156.95,0
30.29,0
30.29,0
87.377,0
87.377,0
6.4957,0
6.4957,0
37.959,0
37.959,0
4.6981,0
4.6981,0
87.336,0
87.336,0
29.58,0
29.58,0
70.536,0
70.536,0
0.15374,0
0.15374,0
251.37,0
251.37,0
30.289,0
30.289,0
25.535,0
25.535,0
26.801,0
26.801,0
104.3,0
104.3,0
1.0892,0
1.0892,0
81.042,0
81.042,0
79.964,0
79.964,0
9.8357,0
9.8357,0
55.666,0
55.666,0
54.312,0
54.312,0
2.2906,0
2.2906,0
55.329,0
55.329,0
16.857,0
16.857,0
32.634,0
32.634,0
34.581,0
34.581,0
63.122,0
63.122,0
36.795,0
36.795,0
17.694,0
17.694,0
109.99,0
109.99,0
56.085,0
56.085,0
44.307,0
44.307,0
54.656,0
54.656,0
206.34,0
206.34,0
128,0
128,0
68.747,0
68.747,0
36.181,0
36.181,0
148.71,0
148.71,0
128.66,0
128.66,0
98.683,0
98.683,0
68.073,0
68.073,0
11.447,0
11.447,0
64.385,0
64.385,0
64.178,0
64.178,0
4.3626,0
4.3626,0
10.126,0
10.126,0
101.52,0
101.52,0
44.713,0
44.713,0
0.86205,0
0.86205,0
6.5934,0
6.5934,0
60.49,0
60.49,0
29.326,0
29.326,0
27.002,0
27.002,0
8.4082,0
8.4082,0
7.4582,0
7.4582,0
70.771,0
70.771,0
39.249,0
39.249,0
88.719,0
88.719,0
122.55,0
122.55,0
150.96,0
150.96,0
19.323,0
19.323,0
416.49,0
416.49,0
518.87,0
518.87,0
589.45,0
589.45,0
368.73,0
368.73,0
505.18,0
505.18,0
461.13,0
461.13,0
406.95,0
406.95,0
379.38,0
379.38,0
367.06,0
367.06,0
239.3,0
239.3,0
202.59,0
202.59,0
352.03,0
352.03,0
308.54,0
308.54,0
324.12,0
324.12,0
68.313,0
68.313,0
17.893,0
17.893,0
19.209,0
19.209,0
54.994,0
54.994,0
49.22,0
49.22,0
1.9993,0
1.9993,0
99.731,0
99.731,0
69.362,0
69.362,0
12.176,0
12.176,0
11.22,0
11.22,0
2.0759,0
2.0759,0
2.8158,0
2.8158,0
130.71,0
130.71,0
114.36,0
114.36,0
15.949,0
15.949,0
18.326,0
18.326,0
94.561,0
94.561,0
4.5173,0
4.5173,0
107.99,0
107.99,0
157.33,0
157.33,0
251.94,0
251.94,0
181.82,0
181.82,0
160.7,0
160.7,0
184.49,0
184.49,0
210.85,0
210.85,0
191.66,0
191.66,0
111.79,0
111.79,0
141.64,0
141.64,0
230.63,0
230.63,0
260.93,0
260.93,0
229.18,0
229.18,0
120.07,0
120.07,0
150.23,0
150.23,0
68.093,0
68.093,0
360.33,0
360.33,0
123.15,0
123.15,0
183.31,0
183.31,0
108.83,0
108.83,0
63.146,0
63.146,0
104.46,0
104.46,0
130.79,0
130.79,0
87.011,0
87.011,0
233.28,0
233.28,0
390.08,0
390.08,0
323.17,0
323.17,0
213.86,0
213.86,0
128.26,0
128.26,0
176.24,0
176.24,0
198.23,0
198.23,0
200.42,0
200.42,0
186.27,0
186.27,0
237.85,0
237.85,0
157.76,0
157.76,0
255.31,0
255.31,0
255.02,0
255.02,0
118.9,0
118.9,0
105.34,0
105.34,0
10.646,0
10.646,0
153.33,0
153.33,0
199.6,0
199.6,0
55.076,0
55.076,0
55.666,0
55.666,0
