@relation 'featureMatrix-weka.filters.unsupervised.attribute.Remove-R1,3-6'

@attribute unnormalizedSpectralEntropy_min numeric
@attribute class {0,1}

@data
0,0
0,0
9.3537,0
0,0
0,1
190.41,1
961.64,1
1687.1,1
1570.2,1
1810.6,1
2538.5,1
2935.4,1
3399.7,1
3820.8,1
3609.9,1
3880.5,1
3937.7,1
4244.7,1
4841.1,1
4139,1
4449.2,1
3900.6,1
3122.3,1
2617.1,1
2627.6,1
2668.6,1
2910,1
2401.9,1
2715.8,1
2714,1
2760.2,1
3303.1,1
3187.7,1
2995.6,1
2896.4,1
3166.1,1
3502,1
4065.3,1
4396.3,1
4097.2,1
4081.5,1
3788.1,1
3836.4,1
3705.2,1
3395.6,1
3742.9,1
3641.3,1
3309.6,1
3216.5,1
3249.7,1
3528.3,1
3582.3,1
2720.5,1
2284.9,1
1328.1,1
1451.5,1
488.08,1
318.76,1
295.84,1
361.25,1
192.53,1
115.15,0
41.352,0
145.98,0
248.63,0
15.035,0
352.63,0
1111.7,0
1777.1,0
2514.9,0
2643.8,0
2804.4,0
2967.1,0
3109.3,0
3150.7,0
1954.3,0
2110.2,0
2538.1,0
1543.6,0
2035.1,0
2097.7,0
1644.5,0
821.61,0
573.89,0
703.03,0
401.43,0
323.16,1
893.88,1
951.99,1
1762,1
2009.4,1
1826.9,1
2606.1,1
2842,1
2950.9,1
2569.9,1
2145.1,1
2003.2,1
2620.4,1
2316,1
2158.3,1
2469.6,1
2602.7,1
1937.3,1
2500.1,1
2659.6,1
2307,1
2680.6,1
2517.8,1
2402.9,1
2078.2,1
1940.2,1
1380.7,1
1249.7,1
1540.7,1
1354.7,1
1654.8,1
1533.1,1
1712,1
1889.1,1
1985,1
2225.3,1
1783.3,1
1708.9,1
1600.2,1
1765.2,1
1859.5,1
2014.4,1
1983.9,1
1808.1,1
1650.8,1
1723,1
1555.9,1
1638.8,1
1638.2,1
1719,1
1832.6,1
1596.1,1
1884.2,1
1727.9,1
1424.1,1
1769.3,1
1619.8,1
1580.6,1
1549.3,1
1635.7,1
1828,1
1978.1,1
2229.2,1
2268.7,1
1972.9,1
2226.3,1
2073.7,1
2157.3,1
2193,1
2308,1
2492.3,1
2699.1,1
2746,1
2319.3,1
2684.3,1
2654.2,1
2714.1,1
2892.7,1
2970.1,1
2600.7,1
2534.3,1
2436.6,1
3919.1,1
5924.5,1
4632.8,1
8057.8,1
7327.9,1
7570,1
6760.7,1
6186.1,1
5850.3,1
4648.1,1
4824.4,1
3980.4,1
3633.3,1
3833.7,1
2131.9,1
2423,1
2022.5,1
1503.9,1
1559.6,1
1730.3,1
2106.2,1
2166.9,1
3928,1
2597.8,1
2413.1,1
1986.8,1
1804.8,1
923.3,1
416.55,1
906.18,1
454.22,1
462.72,1
343.51,0
150.94,0
78.903,0
55.293,0
107.45,0
15.192,0
0,0
0,0
0,0
15.714,0
0,0
0,0
62.588,0
89.512,0
26.041,0
34.301,0
78.635,0
32.202,0
7.4967,0
131.15,0
80.446,0
150.39,0
111.91,0
131.63,0
108.38,0
85.89,0
79.522,0
80.272,0
147.65,0
176.63,0
208.56,0
222.81,0
439.67,0
342.29,0
552.3,0
502.07,0
416.8,0
223.86,0
273.71,0
195.78,0
368.45,0
555.42,0
632.39,0
458.93,0
683.86,0
603.84,0
658.48,0
1047.4,0
859.5,0
716.32,0
705.99,0
830.53,0
820.96,0
746.8,0
843.01,0
973.16,0
1005.8,0
619.92,0
819.07,0
760.7,0
1124.6,0
1191.1,0
1736.7,0
2844.1,0
2982.6,0
2540.4,0
1216.8,0
1087.2,0
1114.4,0
1186.8,0
878.85,0
858.84,0
604.98,0
979.99,0
989.62,0
1415.2,0
1100.8,0
656.37,0
759.42,0
991.35,0
1110,0
807.62,0
1288.2,0
1503.1,0
1154.7,0
745.01,0
1272.7,0
1263.3,0
765.47,0
752.67,0
610.77,0
459.15,0
344.01,0
463.64,0
586.39,0
771.19,0
784.87,0
616.27,0
1154.1,0
663.81,0
626.13,0
480.54,0
297.05,0
306,0
412.23,0
325.28,0
181.79,0
209.59,0
209.91,0
170.91,0
127.79,0
119.11,0
93.388,0
117.9,0
204.13,0
161.16,0
250.84,0
455.44,0
477.87,0
340.98,0
413.23,0
412.99,0
242.48,0
344.74,0
169.52,0
271.76,0
154.73,0
169.81,0
123.91,0
58.649,0
202.98,0
364.29,0
435.81,0
395.06,0
339.73,0
252.62,0
230.47,0
259.29,0
411.91,0
311.11,0
294.92,0
219.57,0
291.61,0
317.73,0
394.53,0
296.34,0
275.16,0
215.49,0
257.17,0
141.97,0
325.53,0
374.83,0
411.9,0
367.78,0
711.03,0
664.48,0
776.48,0
721.48,0
814.81,0
1016.7,0
614.45,0
782.36,0
415.02,0
357.14,0
180.85,0
192.41,0
267.41,0
421.97,0
1478.4,0
1992.6,0
1621,0
1393.5,0
1201.4,1
1512.5,1
1112.9,1
802.04,1
1738.9,1
1566.1,1
1012.3,1
1178.3,1
984.45,1
1329.8,1
1120.4,1
1286.7,1
1091.7,1
851.28,1
789.51,1
1275,1
1300.7,1
948.65,1
1080,1
1083.3,1
1176.9,1
1187.4,1
990.73,1
997.3,1
1112.8,1
886.63,1
1053.7,1
774.78,1
785.87,1
1048.5,1
996.83,1
1077.1,1
855.06,1
823.73,1
636.09,1
610.16,1
740.58,1
1057.4,1
973.68,1
828.04,1
821.87,1
714.53,1
975.92,1
719.65,1
799.11,1
770.26,1
1218.6,1
1015.7,1
1284.7,1
1925,1
3658.7,1
3722.8,1
2911.4,1
4077.8,1
4670.4,1
6804.6,1
6356.7,1
6245.3,1
6074.2,1
4948.3,1
4469.3,1
3647.9,1
2770,1
2963.5,1
2568.8,1
2132.7,1
2409.7,1
2326,1
2173.2,1
2049.3,1
1857,1
1908.1,1
2090.9,1
1748.5,1
1804.1,1
2103.4,1
1674.7,1
1896.8,1
2034.3,1
1980.4,1
2173.7,1
2252.6,1
2297.1,1
2785.6,1
3259.2,1
2755.1,1
1961.5,1
2501.2,1
2601.3,1
2801.6,1
2926.4,1
2231.9,1
2478.8,1
2863.2,1
3530.9,1
3600.9,1
4521.2,1
4579.5,1
4470,1
4894.2,1
4584.4,1
5710.3,1
5195.7,1
4481.5,1
4286.4,1
3913,1
3546.3,1
3191.1,1
3359.7,1
3356,1
4156.7,1
4216,1
5042.3,1
4445.6,1
4195.8,1
3494.8,1
2193.4,1
3006.4,1
2379.2,1
1972.8,1
1405.9,1
1125.3,0
1247.8,0
1786.7,0
1056.9,0
854.7,0
658.52,0
673.28,0
438.35,0
554.48,0
478.37,0
388.41,0
480.66,0
318.71,0
487.38,0
281.48,0
172.15,0
367.58,0
261.38,0
117.09,0
53.255,0
81.421,0
87.361,0
142.44,0
119.07,0
82.886,0
105.69,0
81.636,0
120.89,0
151.06,0
251.33,0
754.23,0
484.23,0
534.58,0
520.96,0
436.32,0
456.13,0
373.66,0
393.28,0
439.42,0
346.68,0
517.89,0
716.98,0
555.32,0
807.85,0
583.34,0
250.15,0
400.44,0
291.73,0
377.93,0
144.49,0
340.11,0
627.62,1
1061.1,1
3026.6,1
3969.9,1
4003.1,1
3162.9,1
4181.1,1
4363.5,1
3118.4,1
2904.8,1
2774.1,1
1957,1
1516.9,1
1249.4,1
1022.9,1
644.74,1
612.07,1
448.65,0
352.84,0
847.1,0
1910.2,0
1100.4,0
689.53,0
659.02,0
690.35,0
599.57,0
360.53,0
496.19,0
868.53,0
994.22,0
1068.4,0
700.17,0
779.91,0
926,0
746.19,0
686.4,0
589.31,0
759.71,0
944.19,0
697.39,0
516.24,0
621.11,0
558.8,0
591.32,0
881.05,0
983.5,0
1128.4,0
825.57,0
796.7,0
893.36,0
612.72,0
476.45,0
273.01,0
211,0
225.7,0
219.08,0
47.604,0
72.427,0
111.83,0
94.2,0
277.8,0
344.41,0
237.3,0
203.07,0
373.73,0
539.01,0
230.22,0
493.63,0
247.78,0
582.99,0
280.83,0
402.67,0
286.16,0
377.64,0
555.9,0
453.89,0
589.78,0
634.06,0
501.13,0
307.17,0
330.33,0
191.9,0
332.76,0
575.14,0
633.57,0
350.9,0
508.84,0
617.47,0
294.72,0
171.51,0
188.55,0
36.87,0
33.642,0
198.49,0
328.26,0
524.72,0
1129.6,0
352.79,0
213.03,0
243.13,0
340.66,0
79.868,0
178.87,0
170.26,0
178.55,0
164.72,0
362.8,0
268.6,0
293.66,0
196.38,0
288.25,0
239.31,0
83.525,0
406.15,0
349.93,0
218.08,0
492.24,0
452.36,0
458.27,0
1077.1,0
2513.2,0
1965,0
1083.6,0
957.9,0
881.46,0
894.94,0
265.41,0
620.84,0
763.9,0
632.74,0
1010.2,0
738.88,0
747.78,0
701.64,0
592.5,0
200.26,0
385.46,0
357.97,0
484.74,1
671.39,1
652.37,1
850.64,1
967.92,1
772.69,1
930.88,1
735.48,1
366.52,1
403.95,1
579.05,1
608.39,1
642.05,1
342.11,1
242.77,1
134.22,1
212.43,1
252.23,1
52.867,1
128.65,1
184.23,1
189.89,1
799.18,1
491.75,0
519.33,0
846.63,0
993.9,0
900.33,0
714.83,0
459.95,0
429.69,0
509.97,0
464.2,0
338.14,0
416.5,0
1080.7,0
1359.4,0
1105.6,0
1208.7,0
1893.1,0
1491.9,0
0,0
26.922,0
38.302,0
43.815,0
2.7605,1
0,1
844.77,1
1111.1,1
953.75,1
1048.7,1
1223,1
1449.7,1
1666,1
1767.8,1
1759.6,1
1959,1
2001.3,1
2223.5,1
2272.2,1
2635.2,1
2493.1,1
2590.8,1
2438.9,1
2239.2,1
2190.6,1
2208.5,1
2325.2,1
2099.6,1
2168.2,1
2353.9,1
2588.8,1
2574,1
2626.7,1
2493.7,1
2576.3,1
2619.4,1
2786.7,1
2995.5,1
2929.9,1
3022.5,1
3192.8,1
3054.5,1
3529,1
3372.8,1
3153.8,1
3526.8,1
3086.5,1
3004.6,1
2980.6,1
2656.3,1
3085.7,1
3435.3,1
2509.8,1
1961.5,1
1369.6,1
1172.1,1
429.04,1
101.33,1
27.527,1
4.8003,1
28.758,1
0,0
40.387,0
66.013,0
54.497,0
6.296,0
0,0
31.23,0
37.875,0
12.022,0
14.09,0
1.081,0
44.3,0
64.424,0
26.545,0
3.2721,0
33.946,0
5.9863,0
28.545,0
18.98,0
27.775,0
0.51975,0
3.5924,0
15.105,0
14.379,0
3.1429,0
13.779,1
662.42,1
826.36,1
1196.7,1
1215,1
1425.4,1
1410.5,1
1626.2,1
1699.1,1
1650.6,1
1710,1
1804.8,1
1680.8,1
1808.8,1
1899,1
1749.7,1
1720.3,1
1612.6,1
1548.1,1
1574.5,1
1716.6,1
1683.1,1
1612.9,1
1314.4,1
1479.7,1
1344.1,1
1190.2,1
1264.1,1
1293,1
1155.6,1
1221.4,1
1359.7,1
1403.3,1
1368.5,1
1385.3,1
1303.9,1
1375.6,1
1460.7,1
1494.4,1
1510.2,1
1533.8,1
1540.7,1
1476.6,1
1502.8,1
1266,1
1075.8,1
1103.8,1
1219.5,1
1213,1
1097.9,1
1220.3,1
1062,1
1149.7,1
1175.1,1
1298.7,1
1203.6,1
1303.1,1
1437.7,1
1396.3,1
1451.5,1
1625.2,1
1816.7,1
1857.3,1
1888.2,1
1832.8,1
1755.6,1
1697.2,1
1797.7,1
1883.1,1
2102.1,1
2053.6,1
1940.3,1
2053,1
2050.3,1
2048.8,1
2028.4,1
2145.4,1
1997.6,1
1883.4,1
1912.6,1
1813.9,1
1906,1
1856.5,1
1662.7,1
1738.3,1
1542.4,1
1399.6,1
1379.1,1
1208.7,1
1288.4,1
1398.5,1
1380.6,1
1325.3,1
743.85,1
737.65,1
709.65,1
474.93,1
578.09,1
730,1
681.97,1
383.92,1
718.65,1
634.28,1
457.68,1
594.49,1
465.53,1
432.83,1
185.11,1
7.2617,1
32.086,1
82.063,1
2.2225,1
41.903,1
3.34,1
44.788,0
155.67,0
33.838,0
10.632,0
91.112,0
138.89,0
35.518,0
45.691,0
18.213,0
29.963,0
25.817,0
10.966,0
33.331,0
12.245,0
55.603,0
7.1325,0
26.441,0
35.805,0
7.9663,0
3.367,0
23.749,0
23.9,0
20.812,0
29.565,0
79.668,0
16.987,0
72.503,0
85.092,0
51.247,0
51.08,0
47.631,0
0.83739,0
36.693,0
62.712,0
40.311,0
10.878,0
30.468,0
30.512,0
67.017,0
52.932,0
65.539,0
0,0
44.391,0
56.567,0
8.531,0
49.101,0
11.576,0
85.762,0
164.94,0
91.573,0
19.079,0
14.78,0
3.3702,0
63.535,0
16.63,0
19.119,0
5.868,0
84.547,0
78.714,0
265.62,0
194.63,0
196.06,0
309.95,0
258.32,0
229.84,0
199.6,0
234.84,0
125.76,0
65.8,0
13.25,0
28.749,0
14.23,0
19.63,0
19.724,0
47.468,0
4.6477,0
18.811,0
77.27,0
20.628,0
39.673,0
1.2768,0
128.13,0
16.824,0
64.328,0
16.756,0
21.316,0
14.366,0
61.837,0
16.234,0
52.834,0
11.646,0
212.65,0
36.97,0
10.053,0
12.276,0
72.77,0
29.463,0
30.532,0
96.149,0
7.2222,0
23.711,0
8.6259,0
39.723,0
53.528,0
22.684,0
148.32,0
2.6965,0
122.41,0
14.645,0
20.027,0
156.77,0
32.257,0
71.579,0
9.5178,0
8.0997,0
3.5274,0
37.032,0
7.9279,0
10.251,0
8.6875,0
25.104,0
15.837,0
5.8181,0
9.1926,0
35.597,0
6.8363,0
34.324,0
17.389,0
16.547,0
5.0062,0
11.287,0
44.608,0
12.009,0
2.3708,0
49.707,0
69.371,0
24.212,0
8.3292,0
0.2115,0
71.173,0
16.181,0
27.101,0
6.9008,0
4.3212,0
19.147,0
19.286,0
0.87461,0
30.012,0
23.868,0
34.689,0
34.005,0
87.85,0
37.738,0
39.376,0
24.682,0
32.395,0
27.279,0
5.6028,0
3.5563,0
43.484,0
87.981,0
36.231,0
31.53,0
56.148,0
11.105,0
35.654,0
13.886,0
0,0
9.6656,0
10.369,0
60.044,0
44.238,0
109.98,1
498.95,1
419.94,1
391.78,1
928.48,1
1106.7,1
722.94,1
786.43,1
785.46,1
926.46,1
969.6,1
898.74,1
781.39,1
747.99,1
668.9,1
562.43,1
495.9,1
508.1,1
473.19,1
428.9,1
528.92,1
504.51,1
591.82,1
550.5,1
525.3,1
357.1,1
408.09,1
294.75,1
258.28,1
287.09,1
252.1,1
439.48,1
436.7,1
263.99,1
364.91,1
254.62,1
297.65,1
278.96,1
384.65,1
373.46,1
298.21,1
333.92,1
290.67,1
359.15,1
298.4,1
270.97,1
458.47,1
418.72,1
587.95,1
1446,1
2856,1
3316.6,1
2423.1,1
3531.7,1
4521,1
7063.5,1
6794.4,1
5928.2,1
5358.1,1
4601.3,1
3744.9,1
2634.8,1
2081.4,1
1842.2,1
1367,1
1158.1,1
1361.4,1
1161,1
1082.2,1
1132.7,1
1345,1
1335.8,1
1234.6,1
1309.8,1
1277,1
1091.2,1
962.46,1
1001.8,1
1046.7,1
1015.6,1
1434,1
1353.5,1
1422.4,1
1332.9,1
1473.3,1
1421.4,1
1347.4,1
1326.3,1
1444.5,1
1532.9,1
1593.7,1
1615.8,1
1794.4,1
1796.8,1
2062.1,1
2266.6,1
2430.5,1
2336.6,1
2470,1
2490.5,1
2522.5,1
2591.3,1
2698,1
2651.9,1
2580.3,1
2487.4,1
2351.4,1
2215.8,1
2138.9,1
2586,1
3302.2,1
3603.7,1
3928.4,1
3646.4,1
3146.7,1
2322.9,1
1558.9,1
900.91,1
353.45,1
22.214,1
26.807,1
20.63,0
10.484,0
13.832,0
3.4811,0
109.88,0
86.763,0
56.997,0
39.335,0
1.1483,0
39.045,0
44.699,0
5.3615,0
23.95,0
1.375,0
29.94,0
57.907,0
19.626,0
18.316,0
27.347,0
10.791,0
27.671,0
27.279,0
36.739,0
43.249,0
91.723,0
22.76,0
31.157,0
2.8996,0
11.94,0
6.728,0
37.182,0
0.95762,0
131.37,0
55.945,0
21.496,0
61.015,0
0,0
89.008,0
143.62,0
125.26,0
94.956,0
159.72,0
111.02,0
69.784,0
56.506,0
3.2054,0
40.449,0
0.88382,0
37.106,0
64.645,0
8.0545,0
69.976,1
393.41,1
1571.9,1
2401.5,1
2471.5,1
2005.9,1
3204.8,1
3629.5,1
2193.9,1
2118.9,1
1637.1,1
1149.9,1
991.89,1
673.2,1
389.47,1
246.38,1
193.7,1
417.99,0
270.64,0
445.89,0
123.99,0
129.71,0
240.85,0
100.43,0
75.6,0
53.03,0
88.504,0
74.272,0
217.84,0
139.94,0
104.33,0
59.903,0
45.867,0
188.37,0
45.711,0
99.796,0
32.664,0
120.27,0
64.594,0
23.537,0
16.716,0
92.174,0
1.5447,0
53.623,0
4.2461,0
2.9056,0
32.953,0
49.098,0
13.612,0
6.9634,0
10.359,0
41.701,0
6.4072,0
44.267,0
38.064,0
32.586,0
38.052,0
92.433,0
16.082,0
7.4156,0
23.18,0
30.285,0
25.324,0
126.1,0
24.834,0
7.6038,0
18.229,0
29.359,0
39.158,0
23.256,0
51.159,0
5.346,0
11.272,0
15.635,0
41.639,0
3.7894,0
33.871,0
40.06,0
5.0623,0
38.601,0
27.835,0
0.64294,0
34.714,0
54.97,0
16.245,0
18.641,0
20.43,0
90.536,0
33.439,0
52.911,0
34.755,0
95.81,0
16.258,0
4.2109,0
1.9554,0
1.3943,0
72.338,0
27.404,0
24.199,0
1.5758,0
47.079,0
23.432,0
3.2409,0
18.163,0
4.543,0
4.7966,0
70.474,0
33.939,0
53.615,0
37.956,0
38.276,0
47.002,0
47.047,0
29.637,0
3.2031,0
4.8135,0
40.758,0
6.6074,0
15.374,0
2.2446,0
28.433,0
2.4934,0
24.643,0
42.626,0
37.655,0
43.006,0
35.537,0
9.3214,0
32.276,0
85.611,0
0.80549,0
12.071,0
27.602,0
41.157,0
48.026,0
0.19132,0
17.818,0
12.613,0
76.638,1
36.159,1
44.477,1
112.4,1
164.64,1
374.75,1
359.64,1
254.53,1
155.3,1
234.22,1
299.79,1
460.41,1
477.72,1
109.84,1
13.609,1
53.282,1
28.675,1
46.517,1
22.25,1
38.622,1
12.934,1
8.6981,1
37.991,1
10.495,0
33.53,0
55.382,0
27.125,0
29.637,0
7.9177,0
33.55,0
2.1783,0
24.118,0
38.498,0
40.843,0
44.538,0
11.498,0
27.513,0
87.967,0
35.484,0
13.16,0
21.299,0
0,0
8.0123,0
46.233,0
0,0
22.946,1
0,1
849.06,1
1262.6,1
1162.3,1
1248.2,1
1268.6,1
1551.2,1
1675.3,1
1859.6,1
1842.7,1
2086,1
2439,1
2367.8,1
2436.5,1
2811.5,1
2615.6,1
2891.8,1
2835.5,1
2559.4,1
2568.7,1
2435.3,1
2453.2,1
2088.6,1
2296.6,1
2530.6,1
2699.3,1
3143.5,1
2744.4,1
2571.2,1
2764.9,1
3124.4,1
3227.5,1
3370.8,1
3532.1,1
3165.5,1
3201.1,1
3424.9,1
3415.3,1
3350.1,1
3509,1
3605.5,1
3345.2,1
3502,1
3109.2,1
3105.7,1
3319.9,1
3534.6,1
2698.4,1
2121.5,1
1572.2,1
1259.6,1
652.26,1
205.81,1
143.03,1
117.21,1
353.67,1
429.29,0
447.69,0
282.87,0
251.73,0
478.1,0
246.12,0
343.88,0
202.64,0
315.6,0
495.93,0
399.74,0
246.76,0
313.77,0
361.88,0
343.86,0
321.43,0
356.1,0
215.16,0
172.39,0
359.37,0
273.6,0
309.66,0
269.87,0
258.66,0
109.76,0
249.3,1
750.14,1
1056,1
1394.4,1
1586.3,1
1575.1,1
1767,1
1782.7,1
1837,1
1852.2,1
1909,1
1895.5,1
2081.3,1
1873.5,1
1901.3,1
2294.3,1
2145.3,1
2080.8,1
2243.3,1
1989.1,1
2046.5,1
2117.4,1
1958.1,1
1672.4,1
1876.7,1
1555.4,1
1557,1
1517.6,1
1350.1,1
1354.2,1
1663.2,1
1495.1,1
1497.5,1
1652.5,1
1465,1
1628.1,1
1699.4,1
1673.3,1
1722.8,1
1749,1
1659.5,1
1785.2,1
1748.7,1
1758.9,1
1415.9,1
1387.5,1
1479.3,1
1275.1,1
1365.2,1
1236.8,1
1313.3,1
1363.2,1
1258.3,1
1250.9,1
1511.1,1
1603.1,1
1471.2,1
1488.7,1
1637.6,1
1707.7,1
2050.6,1
2120,1
2096.8,1
2127.7,1
2122.8,1
2068.5,1
2090.9,1
2185,1
2210.7,1
2500,1
2356.2,1
2300.6,1
2236.8,1
2329.3,1
2267,1
2267.9,1
2351.1,1
2236.7,1
2092.5,1
2057.1,1
1970.7,1
2119.8,1
1979.8,1
1819.5,1
1688.4,1
1586.6,1
1673.9,1
1590.6,1
1337.8,1
1415.5,1
1442,1
1513.2,1
1272.3,1
871.21,1
929.46,1
991.8,1
865.44,1
1332.7,1
1194.6,1
1136.9,1
617.77,1
1240.6,1
1451.7,1
694.93,1
666.41,1
815.78,1
743.33,1
484.18,1
219.48,1
255.13,1
274.08,1
231.88,1
733.01,1
672.82,1
323.41,0
304.28,0
343.21,0
135.89,0
91.314,0
86.968,0
310.16,0
302.89,0
219.64,0
135.15,0
365.46,0
423.12,0
375.43,0
294.74,0
144.88,0
354.27,0
337.97,0
117.76,0
32.395,0
75.377,0
68.745,0
131.72,0
229.67,0
183.93,0
472.53,0
363.19,0
273.71,0
211.63,0
327.65,0
328.06,0
183.55,0
339.31,0
293.31,0
392.04,0
330.51,0
351.9,0
198.87,0
157.4,0
184.91,0
263.73,0
201.91,0
261.04,0
283.26,0
277.56,0
129.68,0
86.989,0
139.17,0
89.874,0
67.026,0
228.71,0
41.63,0
34.829,0
64.924,0
47.073,0
82.213,0
102.36,0
12.3,0
40.091,0
52.888,0
34.139,0
0,0
44.7,0
87.573,0
125.14,0
213.92,0
146.1,0
28.759,0
84.631,0
54.539,0
31.069,0
43.356,0
1.6291,0
126.01,0
188.66,0
22.91,0
0.22498,0
16.62,0
0,0
6.7612,0
49.002,0
43.08,0
0.29751,0
88.754,0
61.226,0
4.7401,0
0.63665,0
0.48972,0
0,0
120.9,0
104.63,0
9.979,0
16.289,0
88.421,0
0,0
97.411,0
116.73,0
56.508,0
33.454,0
2.6292,0
37.681,0
10.222,0
41.515,0
71.209,0
57.46,0
98.7,0
192.35,0
115.76,0
79.528,0
239.73,0
181.08,0
31.185,0
18.672,0
69.425,0
32.031,0
72.479,0
65.159,0
25.19,0
48.66,0
148.23,0
81.896,0
17.202,0
28.615,0
7.4166,0
55.546,0
62.374,0
81.082,0
144.84,0
58.844,0
73.441,0
61.84,0
62.78,0
22.285,0
50.052,0
131.91,0
102.41,0
67.699,0
81.299,0
129.05,0
178.23,0
143.47,0
124.01,0
167.91,0
121.54,0
311.73,0
279.3,0
332.52,0
358.49,0
381.25,0
348.55,0
315.92,0
259.06,0
136.86,0
381.62,0
147.13,0
86.722,0
83.613,0
140.02,0
42.61,0
105.77,0
162.2,0
83.513,0
87.332,0
61.082,0
112.32,0
133.79,0
124.01,0
146.76,0
118.38,0
193.27,0
187.7,0
171.09,0
101.04,0
197.11,1
680.76,1
659.74,1
607.63,1
895.54,1
1134.6,1
794.36,1
1018.8,1
840.1,1
1156.2,1
1029.4,1
1181.4,1
1063.9,1
892.37,1
731.15,1
724.05,1
748.53,1
785.09,1
614.01,1
564.88,1
693.25,1
749.78,1
897.73,1
697.28,1
659.96,1
485.69,1
583.67,1
425.67,1
317.61,1
449.8,1
248.84,1
540.93,1
599.21,1
610.61,1
588.29,1
321.3,1
341.8,1
406.22,1
443.39,1
463.86,1
454.88,1
413.15,1
552.76,1
577.77,1
438.45,1
507.59,1
590.32,1
512.61,1
741.9,1
1699.5,1
3233,1
3290.5,1
2426.2,1
3737.1,1
4632,1
6900.6,1
6742.4,1
6056,1
5448.1,1
4851.8,1
4044.5,1
2909.4,1
2305.4,1
1995.6,1
1633.6,1
1346.5,1
1355.6,1
1313.3,1
1181.2,1
1222.4,1
1171.9,1
1495.6,1
1334.9,1
1544.4,1
1326.9,1
1225.2,1
1049.1,1
1177.1,1
1096.4,1
1175,1
1374.1,1
1449.6,1
1493.7,1
1636.4,1
1536.9,1
1536.5,1
1479.7,1
1497.7,1
1404,1
1829.4,1
1841.8,1
1815.5,1
1789.2,1
1888.1,1
2157.7,1
2505.3,1
2647.4,1
2673.3,1
2852,1
2691.6,1
2687.4,1
2850.9,1
2956.1,1
2912.6,1
2902.7,1
2795.3,1
2722.4,1
2378.5,1
2464.4,1
2704.4,1
3452.7,1
3827.4,1
3924.6,1
3673.8,1
3372.8,1
2587.6,1
1642.6,1
1192.4,1
471.62,1
205.63,1
246.34,1
129.44,0
133.4,0
196.53,0
167.83,0
215.16,0
360.34,0
292.49,0
194.45,0
97.853,0
156.48,0
194.35,0
186.59,0
233.85,0
129.87,0
114.68,0
220.48,0
251.49,0
310.2,0
182.45,0
138.32,0
223.22,0
351.91,0
177.47,0
198.61,0
251.3,0
207.13,0
212.13,0
249.08,0
241.55,0
213.98,0
267.98,0
228.1,0
280.42,0
292.82,0
294.92,0
279.19,0
185.7,0
242.67,0
323.8,0
294.4,0
345.94,0
210.78,0
295.11,0
194.62,0
255.56,0
195.77,0
88.653,0
302.13,0
164.01,0
212.12,0
161.25,0
208.7,1
534.55,1
1696,1
2522.8,1
2476.8,1
2174.3,1
3386,1
3880.3,1
2525.9,1
2567.2,1
1893.9,1
1601.2,1
1201.4,1
672.77,1
315.35,1
169.8,1
143.22,1
69.475,0
80.687,0
109.58,0
53.149,0
117.89,0
126.51,0
206.25,0
97.724,0
107.34,0
117.41,0
153.94,0
160.69,0
238.91,0
219.84,0
273.38,0
168.06,0
218.52,0
159.88,0
63.553,0
88.623,0
134.15,0
96.498,0
107.01,0
158.48,0
93.472,0
187.3,0
47.94,0
49.022,0
71.531,0
67.199,0
85.456,0
197.83,0
159.78,0
122.78,0
0,0
48.943,0
54.719,0
68.628,0
137.75,0
155.69,0
249.3,0
122.09,0
85.688,0
132.93,0
194.9,0
128.6,0
298.91,0
54.433,0
164.9,0
193.35,0
125.27,0
154.07,0
174.13,0
0,0
124.11,0
301.87,0
87.853,0
123.12,0
131.5,0
375.12,0
195.55,0
111.43,0
203.22,0
82.066,0
106.5,0
203.58,0
175.18,0
139.05,0
161.27,0
231.71,0
151.35,0
131.47,0
108.52,0
139.31,0
63.457,0
114.43,0
182.52,0
294.79,0
186.69,0
161.71,0
103.68,0
238.93,0
147.36,0
103.7,0
162.37,0
81.301,0
172.07,0
65.217,0
122.66,0
134.76,0
65.128,0
140.43,0
136,0
125.78,0
67.948,0
213.09,0
92.947,0
104.66,0
216.58,0
145.31,0
177.84,0
121.27,0
205.71,0
175.19,0
160.57,0
80.202,0
123.57,0
173.13,0
90.623,0
145.9,0
265.63,0
157.76,0
168.67,0
133.21,0
117.81,0
105.5,0
125.09,0
167.61,0
104.79,0
218.15,0
205.09,0
136.29,1
124.2,1
106.69,1
304.23,1
361.69,1
406.27,1
468.28,1
359.25,1
195.67,1
272.91,1
485.52,1
532.37,1
606.62,1
189.87,1
140.25,1
53.687,1
158.49,1
199.68,1
169.77,1
114.45,1
168.57,1
8.0345,1
160.38,1
118.36,0
2.1427,0
9.9371,0
167.23,0
53.415,0
102.34,0
46.598,0
195.71,0
77.812,0
147.15,0
59.639,0
61.964,0
178.86,0
177.43,0
132.23,0
93.619,0
50.746,0
50.117,0
0,0
0,0
11.633,0
0,0
0,0
208.01,0
262.83,0
299.85,0
593.59,1
996.79,1
1678.1,1
1744.2,1
2461.9,1
2519.7,1
2724.2,1
3278.6,1
3160.3,1
2869.1,1
3121.3,1
2753.4,1
2663.9,1
2378.8,1
1252.8,1
666.36,1
1175.6,1
790.9,1
1083.4,1
948.59,1
734.67,1
814.7,1
951.35,1
1110.7,1
1048.1,1
1156.7,1
1155.8,1
1046.5,1
1782.8,1
2047,1
2320.7,1
1945.9,1
1773.1,1
1467.9,1
1239.6,1
2015.8,1
1929.3,1
1304.4,1
1380.7,1
1527.9,1
685.33,1
1399.8,1
1581.2,1
1731.4,1
984.07,1
1006.5,1
983.78,1
1243.5,1
1152.8,1
2977.1,1
3463.1,1
3918.1,1
4841.4,1
5327.5,1
5558.6,1
5601.5,1
5751.9,1
6525.8,1
6518.4,1
6780.5,1
7317.6,1
7054.5,1
6940.2,1
6635.2,1
6597.1,1
6417.8,1
7147.2,1
6552.2,1
6940.4,1
7406.2,1
6989.5,1
7788.3,1
8132.7,1
6332.1,1
5301.7,1
4494.9,1
4728.7,1
4382.2,1
3853.2,1
3665.8,1
3265.2,1
3261.1,1
3484,1
3236,1
3996.6,1
3944.1,1
3525.4,1
2840.7,1
2600.7,1
2788,1
2833.9,1
2790.8,1
2436.9,1
2335.3,1
2611,1
2185.8,1
1976,1
1918.1,1
1743,1
1588.1,1
1275.8,1
889.05,1
511.25,1
637.84,1
317.73,1
473,1
588.46,1
313.86,1
485.62,1
622.35,1
811.33,1
996.02,1
1214.6,1
1414.7,1
956.2,1
591.75,1
574.59,1
376.65,1
250.44,1
280.1,1
208.15,1
326.23,1
319.56,1
485.21,1
280.2,1
346.61,1
419.06,1
400.22,1
628.24,1
1068,1
547.95,1
457.68,1
403.3,1
424.47,1
201.83,1
0,1
88.772,1
136.31,1
32.733,1
0,1
121.59,0
116.39,0
28.521,0
167.65,0
89.273,0
73.433,0
0,0
89.274,0
147.49,0
392.12,0
596.41,0
499.53,0
402.94,0
610.16,0
646.91,0
880.17,0
1045.1,0
752.67,0
735.72,0
490.28,0
3060.9,0
5438.7,0
4063.4,0
7857,0
7382,0
7109.3,0
6850.5,0
5785.1,0
5378.9,0
4560.7,0
4259.8,0
4156.7,0
3561.6,0
3932.6,0
2188.2,0
2484.1,0
2290,0
1194.9,0
1676.8,0
1497.2,0
2104.8,0
2327.5,0
3770.3,0
2708.7,0
2161,0
2249.2,0
2200.5,0
1152.4,0
601.26,0
1261.9,0
789.99,0
808.59,0
932.42,0
380.17,0
244.47,0
233.76,0
284.27,0
191.23,0
179.38,0
59.489,0
55.532,0
70.359,0
0,0
0,0
69.967,0
96.524,0
35.237,0
51.372,0
95.776,0
38.556,0
16.529,0
157.77,0
99.561,0
175.37,0
140.36,0
160.64,0
134.59,0
106.67,0
102.22,0
102.71,0
177.36,0
211.36,0
255.16,0
267.45,0
515.46,0
406.37,0
638.49,0
585.39,0
513.72,0
531.37,1
795.82,1
751.34,1
1154.7,1
1802.6,1
1787.7,1
1667.9,1
1476.1,1
1381.2,1
1642.6,1
2263.9,1
1753.6,1
1769.9,1
1691.2,1
2121.6,1
2106.1,1
1795.6,1
1922.6,1
1931.6,1
1923.1,1
1354.8,1
1774.8,1
1478.3,1
2150,1
2401.5,1
3098.3,1
3778.5,1
3911.4,1
3374,1
2018.7,1
2206.3,1
1935.4,1
2114.8,1
1993.2,1
1795.8,1
1862.8,1
2033.6,1
2092.4,1
2529.7,1
2153.7,1
1497.6,1
1755.9,1
1690.4,1
2463,1
1997.4,1
2033.4,1
2094.1,1
2218.9,1
1181.6,1
1409.3,1
1446.1,1
903.92,0
898.96,0
701.75,0
535.92,0
410.02,0
541.24,0
675.48,0
886.42,0
895.24,0
818.74,0
1693,0
1017.9,0
857.36,0
694.15,0
359.47,0
366.5,0
481.83,0
383.69,0
211.18,0
238.88,0
249.98,0
207.43,0
159.63,0
146.68,0
121.16,0
148.05,0
253.83,0
259.49,0
540.22,1
1132.1,1
1373.1,1
1425.1,1
1825.2,1
1675.2,1
1483.1,1
1359.5,1
1274.1,1
1395.3,1
1211.3,1
1245.1,1
1368.9,1
1112,1
1177.3,1
1070,1
1538.1,1
1250.7,1
1285.8,1
1147.4,1
1237.9,1
1388.1,1
1387.2,1
1271,1
1197.6,1
1587.7,1
1715.9,1
1625.2,1
1636.1,1
1423.7,1
1356.2,1
1484.8,1
1773.8,1
1683.5,1
1763,1
2040.2,1
2096,1
1810.8,1
2090.1,1
2343.8,1
1856.8,1
2496.4,1
1903.1,1
2691.9,1
1837.9,1
2876.8,1
3848.8,1
5123.4,1
5443.6,1
5135.3,1
6385.5,1
6811.4,1
7891.5,1
8200.6,1
9182.7,1
9390.3,1
9657.4,1
9650.1,1
9532.2,1
9962.5,1
10102,1
10847,1
9931.8,1
9188.4,1
9440.4,1
9232.4,1
9934.3,1
10723,1
10074,1
10816,1
10625,1
10822,1
10986,1
10338,1
8774.8,1
8562.4,1
8233,1
6868.8,1
6152.3,1
5131.3,1
5508,1
5390,1
5244.2,1
5077.5,1
5851.6,1
6581.7,1
6645.8,1
6562.9,1
6759,1
6137.3,1
5011.9,1
4415,1
3696.4,1
3082.6,1
2880.8,1
2740.3,1
2549.7,1
2195.6,1
2350.5,1
2389.2,1
2084.5,1
2202,1
2417.2,1
2224.5,1
2143,1
1715.7,1
1456.6,1
1509.5,1
1214.6,1
1509.7,1
1001.8,1
1218.7,1
739.19,1
2104.7,1
3226.5,1
1714.3,1
1342.6,1
1348.3,1
1048.1,1
1158.8,1
1066.2,1
1359.3,1
1632.4,1
1389,1
1872.7,1
1208.1,1
943.93,1
1060.5,1
1165.8,1
639.94,1
917.27,1
1299.6,1
1109.6,1
1273.4,1
1561.9,1
1498.7,1
1429.3,1
1454.7,1
1277.3,1
1487.9,1
1968.8,1
1934.8,1
1683.8,1
2161.6,1
2102.8,1
1102.9,1
1040.3,0
737.9,0
431.22,0
1345.7,0
1323.8,0
1176.4,0
2494.4,0
2852.8,0
2527.6,0
2835.1,0
2634.7,0
3657.5,0
3270.1,0
2377.4,0
2183.6,0
1790,0
999.73,0
880.15,0
971.63,0
1052.5,0
1068.4,0
712.28,0
2340.4,0
1902.3,0
1879.2,0
1160.7,0
751.47,0
2141,0
2810.2,0
2122.8,0
1495.9,0
1402.3,1
1446.7,1
2021.5,1
1271.7,1
1464.7,1
1222.7,1
1346.4,1
1291.9,1
1606,1
1580.4,1
1517.9,1
1438.9,1
1257.8,1
1030.6,1
1127.3,1
935.24,1
1312.5,1
1210.8,1
1150,1
916.94,1
974.42,1
907.08,1
1004.9,1
1138,1
952.13,1
912.12,1
1049.2,1
759.35,1
1166.8,1
998.48,1
1756.5,1
1319.3,1
1270.7,1
1550.2,1
1009.1,1
1187,1
1162.5,1
1079.9,1
1247.2,1
1017.7,1
981.28,1
1129.8,1
1093.8,1
749.63,1
585.6,1
523.11,1
470.9,1
401.56,1
746.49,1
125.13,1
261.41,1
554.7,1
734.68,0
1437.9,0
1562,0
1374.7,0
1420.3,0
969.91,0
689.61,0
566.05,0
431.68,0
499.46,0
566.59,0
496.19,0
715.49,0
730.02,0
558.46,0
524.03,0
325.1,0
225.52,0
799.51,0
2325.4,1
1666.4,1
1471.8,1
1389.4,1
1897.1,1
1339.4,1
1531.9,1
1111.1,1
1387.6,1
1902.6,1
2074.4,1
1639.2,1
1414.2,1
1496.8,1
1626,1
1669.3,1
1484.9,1
1690.7,1
1632.1,1
1697.6,1
1151.1,1
1662.2,1
1449.2,1
1437.8,1
1728.1,1
1899.5,1
2142.9,1
1749.3,1
1588.8,1
1375.5,1
1532.1,1
1154.6,1
1011.8,1
970.14,1
837.96,1
815.57,1
888.51,1
803.19,1
795.57,1
768.05,1
1103.6,1
1009.6,1
989.09,1
1046.1,1
1041.9,1
1489.5,1
630.86,1
1226.5,1
1046.3,1
1151,1
553.1,1
411.05,1
224.1,0
328.27,0
528.85,0
382.48,0
542.65,0
628.45,0
474.05,0
238.25,0
313.32,0
124.36,0
248.85,0
551.76,0
624.01,0
283.85,0
452.33,0
562.84,0
221.75,0
76.644,0
103.61,0
0,0
0,0
185.68,0
329.32,0
595.68,0
1509.5,1
828.06,1
935.12,1
1304.2,1
1481.5,1
1403.6,1
1296.5,1
1182.2,1
1186.8,1
987.31,1
1036.7,1
959.59,1
1344.2,1
1055.7,1
1306.3,1
1358.5,1
1105.2,1
1539.5,1
1259,1
1267.2,1
1497.9,1
1324.2,1
1395.2,1
2179.4,1
3621,1
2866.5,1
1838.1,1
1632.4,1
1500.5,1
1710.9,1
1344.8,1
1578.6,1
1608.6,1
1587.2,1
1536.3,1
1503.4,1
1455,1
1447,1
1004.2,1
354.69,1
490.79,1
449.84,1
550.49,1
637.46,0
583.61,0
681.21,0
859.5,0
457.39,0
641.71,0
509.96,0
274.06,0
300.9,0
234.84,0
139.69,0
103.15,0
153.38,0
217.36,0
95.476,0
184.66,0
209.59,0
10.809,0
59.334,0
153.3,0
167.84,0
868.61,0
515.1,0
534.44,0
895.87,0
1214,1
1348.7,1
1680.3,1
1305.7,1
1703,1
1713.1,1
1723.6,1
1532.4,1
1437.6,1
1888.3,1
2130.4,1
2050.5,1
1965.6,1
2575.9,1
2638.2,1
3204.1,1
3011.2,1
2725.2,1
3394.6,1
2489,1
2723.2,1
2724,1
1754.4,1
2134.7,1
2348.6,1
1615.5,1
1454.1,1
881.67,1
1504.1,1
1072.7,1
1273.9,1
1011.2,1
878.81,0
453.82,0
361.93,0
73.12,0
110.21,0
156.91,0
363.07,0
359.42,0
390.89,0
317.09,0
325.74,0
162.12,0
248.04,0
7.1559,0
60.85,0
120.8,0
0,0
0,0
132.8,0
279.45,0
832.74,0
986.12,0
902.85,0
1209.8,0
770.46,0
1041.9,0
647.18,0
0,0
0,0
7.1366,0
19.079,0
75.436,0
43.525,0
16.521,0
112.02,0
230.33,1
535.7,1
535.19,1
704.22,1
858.45,1
636.58,1
724.34,1
705.64,1
616,1
638.03,1
611.22,1
646.11,1
798.46,1
870.02,1
695.16,1
792.58,1
770.81,1
786.37,1
723.43,1
877.38,1
852.74,1
836.05,1
1013.5,1
864.84,1
877.13,1
919.53,1
875.91,1
916.75,1
1054.1,1
925.19,1
968.11,1
973.91,1
1155.1,1
1102.8,1
1276.7,1
970.78,1
1166.2,1
1187,1
1221.4,1
1362.9,1
1382.1,1
1415.3,1
1370.9,1
1204.2,1
1168.6,1
1131.5,1
1353.1,1
1325.3,1
1511.9,1
2952.7,1
3528,1
4047.7,1
5216.2,1
5833.8,1
5873.3,1
5679.1,1
6132.5,1
6901.4,1
6499.9,1
6614.7,1
6632.4,1
6372,1
5893.7,1
4736.1,1
5236.7,1
5169,1
5893.2,1
5669,1
6153.5,1
6113.8,1
6525.1,1
6498.4,1
6827.4,1
5394.1,1
4742.6,1
5017,1
4565.2,1
3923.5,1
4116.7,1
3621.7,1
3586.5,1
3391.3,1
2992.4,1
3520,1
3212.3,1
3119.8,1
2987.8,1
2347.3,1
2651,1
2770.9,1
2402,1
2629.7,1
2544.9,1
2120.9,1
2448.1,1
2123.9,1
1670.4,1
1628.1,1
1383,1
1121.3,1
635.63,1
364.59,1
378.99,1
345.67,1
419.18,1
489.26,1
562.78,1
574.39,1
688.01,1
843.88,1
807.58,1
841.19,1
956.07,1
907.23,1
807.53,1
831.08,1
620.52,1
540.34,1
390.43,1
321.83,1
155.89,1
218.49,1
309.36,1
192.94,1
253.94,1
245.16,1
325.74,1
301.3,1
437.09,1
331.44,1
430.35,1
398,1
445.88,1
290.74,1
403.53,1
461.24,1
420.74,1
297.06,1
244.77,1
208.06,1
122.75,0
52.257,0
34.947,0
43.336,0
61.262,0
79.871,0
20.299,0
83.616,0
42.014,0
9.6826,0
153.03,0
0,0
13.809,0
9.4815,0
63.463,0
11.995,0
56.96,0
192.65,0
253.8,0
163.22,0
9.6039,0
38.548,0
140.48,0
11.518,0
38.454,0
33.32,0
34.507,0
128.53,0
37.906,0
94.807,0
120.04,0
6.4872,0
29.736,0
138.9,0
51.249,0
198.76,0
251.14,0
324.36,0
202.48,0
29.165,0
97.176,0
147.83,0
51.798,0
34.28,0
54.677,0
16.843,0
7.3443,0
72.742,0
132.88,0
68.385,0
198.16,0
324.64,0
397.14,0
250.98,0
82.627,0
61.512,0
186.77,0
262.7,0
6.5262,0
17.929,0
79.899,0
6.002,0
9.9078,0
67.753,0
98.945,0
32.209,0
37.624,0
33.757,0
2.2944,0
2.4367,0
36.861,0
48.325,0
16.508,0
16.16,0
88.049,0
7.4955,0
175.18,0
27.009,0
167.74,0
190.47,0
10.659,0
6.2926,0
1.4025,0
69.799,0
125.33,0
34.056,0
0,0
80.401,0
56.41,0
372.82,1
576.51,1
742.39,1
1002.3,1
1121.8,1
1082.7,1
1014.7,1
1104.7,1
1052.5,1
935.67,1
1172.9,1
1476.5,1
1320.5,1
1248,1
1240.2,1
1204.1,1
1124.2,1
1062.6,1
1082.1,1
1008.8,1
1156,1
1397.6,1
1555.5,1
1562.8,1
1704.7,1
1779.7,1
1700.9,1
1473.9,1
1370.8,1
1391.4,1
1222,1
1400.8,1
1255,1
1247.6,1
1295.3,1
1209,1
1207,1
1344.5,1
1220,1
990.68,1
1386.8,1
1204.8,1
981.79,1
1254.4,1
1364.4,1
1133.5,1
1132.6,1
832.11,1
530.88,1
162.39,1
138.72,1
81.903,0
139.81,0
38.291,0
350.89,0
5.1519,0
67.532,0
67.87,0
156.51,0
92.793,0
71.779,0
602.56,0
307.39,0
70.265,0
127.69,0
99.664,0
164.19,0
14.101,0
273.38,0
52.533,0
222.11,0
22.144,0
69.733,0
270.29,0
2.0499,0
59.058,0
34.142,0
32.83,0
66.164,0
427.38,1
734.45,1
1067,1
1247.5,1
1458.5,1
1589.2,1
1473.3,1
1403.5,1
1208.2,1
1194,1
1176.4,1
1210.6,1
1321.1,1
1129.3,1
1130.3,1
968.64,1
1013.4,1
1039.9,1
1122.2,1
1280.5,1
1119.2,1
1153.6,1
940.17,1
1138.5,1
1393.8,1
1342.6,1
1405.2,1
1476.7,1
1496.8,1
1484.7,1
1458.3,1
1586.5,1
1636.3,1
1629.7,1
1711.6,1
1751,1
1601.9,1
1766.3,1
1532.9,1
1717.6,1
1696,1
1711.5,1
1669.9,1
1547.6,1
1571.4,1
2124.7,1
3806.5,1
5082.6,1
5473.9,1
5067.5,1
6346.1,1
6846.7,1
7691.8,1
8147.8,1
8756.8,1
8716.6,1
9520.4,1
9288,1
9448.3,1
9871.5,1
9818.7,1
11142,1
9902.4,1
8838.1,1
9489.5,1
9363.7,1
9976.9,1
10646,1
10099,1
10772,1
10653,1
10809,1
10781,1
10150,1
8629.6,1
8586.3,1
7894.5,1
6847,1
5888.5,1
5242.2,1
5487.4,1
5017.9,1
5148.5,1
4370,1
5749.2,1
6399.7,1
5951.3,1
6420.6,1
6493.2,1
5463.7,1
4993.5,1
3958.3,1
3571.2,1
2886,1
2431.1,1
2180,1
2018.4,1
1901.6,1
1920.8,1
2133.1,1
1718.1,1
1755.6,1
1866.9,1
1621.6,1
1576.7,1
1448.1,1
1448.3,1
1189,1
1134.1,1
1068.4,1
750.84,1
639.1,1
499.31,1
529.44,1
509.92,1
521.27,1
475.88,1
451.74,1
456.84,1
453.48,1
494.97,1
470.33,1
725.06,1
704.91,1
672.27,1
433.64,1
489.98,1
556.98,1
698.61,1
751.73,1
543.1,1
500.78,1
541.01,1
542.43,1
476.91,1
622.91,1
818.35,1
839.75,1
809.05,1
630.8,1
848.81,1
1043.7,1
1254.6,1
1219.5,1
1030.5,1
159.56,1
53.599,0
48.157,0
222.48,0
139.91,0
109.35,0
22.819,0
84.102,0
22.907,0
67.739,0
19.402,0
49.868,0
101.56,0
33.879,0
120.9,0
218.36,0
2.3741,0
35.36,0
118.78,0
117.84,0
46.601,0
21.499,0
54.767,0
100.84,0
203.81,0
10.652,0
24.083,0
241.9,0
22.7,0
40.575,0
3.0145,0
1.1607,0
270.77,1
228.28,1
121.5,1
268.06,1
763.87,1
912.99,1
865.78,1
978.06,1
1197.4,1
1324.4,1
1195.8,1
1205.1,1
933.15,1
906.12,1
929.71,1
1084.7,1
997.95,1
1243.5,1
1043.5,1
1159.2,1
946.18,1
985.55,1
990.4,1
1165.3,1
1149.3,1
1161.6,1
1048.5,1
930.29,1
1129,1
991.88,1
1002.9,1
932.3,1
1080.8,1
1056.1,1
886.99,1
962.61,1
840.23,1
719.47,1
1063.6,1
932.85,1
701.4,1
798.36,1
563.3,1
216.87,1
4.1296,1
396.05,1
85.765,1
134.62,1
598.57,1
128.18,1
0,1
39.29,1
25.694,0
47.857,0
36.581,0
171.46,0
115.73,0
197.11,0
41.787,0
3.6141,0
55.356,0
16.118,0
1.2636,0
80.2,0
462.78,0
309.21,0
379.1,0
335.01,0
665.86,0
468.49,0
810.28,0
769.58,1
1333.3,1
1607.5,1
1181,1
1552.5,1
1382.4,1
1456.5,1
1290.5,1
1279.9,1
1274.5,1
896.18,1
1079.5,1
916.53,1
847.12,1
935.92,1
1154.9,1
953.47,1
1235.3,1
1234,1
1183.6,1
1152.2,1
1262.8,1
1125.8,1
1233.4,1
998.67,1
991.92,1
1226.6,1
1050.3,1
1086.1,1
1005,1
1066.6,1
925.94,1
944.01,1
1074,1
853.1,1
935.58,1
967.14,1
1264.7,1
1019.2,1
938.6,1
948.98,1
1070.2,1
900.51,1
1025.7,1
942.84,1
961.87,1
989.25,1
858.23,1
798.19,1
726.86,1
495.32,1
242.47,1
60.411,0
21.64,0
10.648,0
45.532,0
2.0392,0
7.6097,0
39.936,0
15.788,0
115.34,0
32.573,0
0.41692,0
122.04,0
19.946,0
90.718,0
7.7705,0
170.43,0
0,0
33.036,0
6.8861,0
197.4,0
72.043,0
45.416,0
60.86,0
265.85,0
555.87,1
606.34,1
1048.4,1
1107.5,1
1332.7,1
1397.2,1
1223.9,1
1044.1,1
977.26,1
916.27,1
1138.3,1
996.84,1
1006,1
1046,1
1049.2,1
1185.9,1
1220.4,1
1178,1
1188.6,1
1042.1,1
1335.3,1
1225,1
1096.2,1
1176.1,1
1182.5,1
1150.5,1
1249.4,1
1013.6,1
1262.4,1
1084,1
1205.3,1
1124.5,1
1209.9,1
1115.7,1
937.35,1
715.3,1
758.18,1
787.08,1
879.11,1
402.66,1
181.74,1
97.276,1
122.35,1
0,0
9.045,0
18.222,0
22.74,0
71.536,0
126.07,0
44.973,0
47.6,0
85.129,0
38.335,0
7.8911,0
126.09,0
30.79,0
67.115,0
131.93,0
5.8201,0
27.329,0
28.288,0
108.68,0
92.028,0
71.005,0
3.3485,0
38.322,0
0,0
33.08,0
281.47,1
690.55,1
1170.2,1
1380.6,1
1472.6,1
1425.7,1
1431.6,1
1280.9,1
1314.2,1
1237.5,1
1036.2,1
1112.8,1
1063.4,1
1087.4,1
957.84,1
1121.2,1
874.48,1
1081.8,1
824.65,1
762.31,1
899.72,1
764.93,1
1006.8,1
858.45,1
1037.9,1
863.93,1
447.99,1
628.56,1
382.54,1
191.55,1
90.829,1
225.82,1
104.48,0
30.693,0
49.605,0
40.94,0
19.452,0
88.937,0
42.618,0
105.15,0
36.483,0
19.322,0
34.808,0
41.123,0
7.9585,0
105.5,0
117.68,0
71.432,0
99.873,0
16.648,0
80.49,0
121.36,0
64.29,0
52.396,0
169.75,0
70.01,0
46.65,0
43.099,0
31.824,0
0,0
23.215,0
47.729,0
0,0
0,0
43.445,0
134.52,0
219.49,0
419.85,1
506.67,1
633.66,1
790.89,1
878.31,1
905.3,1
753.94,1
724.08,1
655.21,1
563.1,1
742.57,1
848.83,1
760.42,1
1015.3,1
969.43,1
859.61,1
989.97,1
930.43,1
1142.2,1
1041.9,1
1083.9,1
1255.4,1
867.13,1
1172.6,1
1219.5,1
1064.5,1
1062.2,1
1332.5,1
1385.9,1
1524.6,1
1431.6,1
1054.1,1
1134.7,1
1419.3,1
1282.4,1
1265.1,1
1528.2,1
1317.4,1
1370.7,1
1662,1
1550.8,1
1356.3,1
1466.8,1
1571.9,1
1305.2,1
1254.7,1
1244.5,1
1068.7,1
1564.3,1
2769.5,1
3335.5,1
3683.6,1
5174.5,1
6039.9,1
5980.1,1
5718.2,1
5922.2,1
6883.1,1
5796.4,1
6066.4,1
6930.4,1
6423.3,1
6110.8,1
5348.4,1
5161,1
5197.4,1
5451.3,1
5257.1,1
6436.7,1
6550.4,1
6547.9,1
6662.4,1
7012.2,1
5659.3,1
5252.6,1
4820.9,1
4484.2,1
4164,1
3924.1,1
3607.4,1
3350.1,1
3503.5,1
3599.6,1
3437,1
3363.3,1
3263.9,1
2761.9,1
2596.6,1
2820.9,1
2777.3,1
2753.1,1
2546.1,1
2463.4,1
2867.9,1
2866.5,1
2415.4,1
2415,1
2104.3,1
1880.8,1
1444.1,1
1111.8,1
840.28,1
952.43,1
747.68,1
806,1
913.4,1
720.47,1
851.75,1
997.31,1
671.35,1
816.12,1
1127.7,1
1163,1
1135.7,1
969.03,1
1064.4,1
697.71,1
752.97,1
482.51,1
518.6,1
346.22,1
393.73,1
364.85,1
411.25,1
568.26,1
628.21,1
365.45,1
375.71,1
602.48,1
398.34,1
463.45,1
449.96,1
760.71,1
742.07,1
490.99,1
361.41,1
467.05,1
527.1,1
515.77,1
461.44,1
455.59,0
389.55,0
329.37,0
489.28,0
388.23,0
351.78,0
310.37,0
558.5,0
270.22,0
176.96,0
320.26,0
356.32,0
205.03,0
272.8,0
330.08,0
188.27,0
170,0
375.97,0
159.49,0
189.79,0
164.55,0
250.52,0
143.89,0
127.95,0
414.41,0
216.32,0
199.58,0
165.69,0
238.83,0
231.64,0
363.18,0
432.83,0
326.56,0
384.51,0
528.31,0
1229.4,0
1013.9,0
1084.2,0
519.03,0
848.9,0
1013.2,0
437.04,0
355.55,0
447.04,0
476.22,0
454.18,0
372.95,0
380.79,0
455.54,0
404.55,0
1186.4,0
1143.6,0
837.51,0
476.83,0
530.49,0
259.87,0
193.17,0
187.29,0
493.02,0
494.27,0
374.74,0
251.28,0
577.77,0
670.67,0
585.21,0
476.17,0
253.41,0
544.27,0
543.84,0
216.15,0
100.93,0
166.29,0
168.58,0
257.66,0
391.15,0
315.44,0
715.89,0
569.85,0
450.07,0
358.79,0
519.31,0
519.74,0
328.07,0
546.02,0
488.03,0
622.86,0
538.6,0
568.38,0
428.22,0
553.49,1
724.95,1
1167.8,1
1291.8,1
1133,1
1407.9,1
1407.2,1
1125.7,1
887.36,1
1173.7,1
1304.3,1
1084.4,1
1276.5,1
1262.7,1
1157.6,1
1187.8,1
1065.4,1
1217.9,1
1026,1
741.07,1
865.95,1
1075.8,1
1008.4,1
1077.5,1
1214.8,1
1086,1
981.4,1
1336.4,1
1269.5,1
978.7,1
1159.9,1
998.85,1
1053.2,1
1206.5,1
1269.7,1
1161.7,1
1319.6,1
1130,1
1135.8,1
972.27,1
972.57,1
946.92,1
1181.6,1
1268.9,1
989.98,1
1242.8,1
820.84,1
665.64,1
529.6,1
10.306,1
0,1
147.21,0
131.95,0
12.586,0
0,0
159.23,0
38.076,0
175.93,0
200.69,0
118.46,0
169.71,0
368.48,0
364.97,0
141.74,0
232.47,0
125.34,0
162.59,0
175.14,0
304.31,0
188.93,0
147.92,0
363.35,0
284.76,0
85.496,0
73.115,0
141.55,0
86.499,0
144.13,0
147.73,0
236.91,1
830.63,1
1163.4,1
1285.2,1
1418.5,1
1423,1
1237,1
1473.1,1
1270.1,1
1331.8,1
1200,1
1139.1,1
1277.1,1
1336.2,1
1246.8,1
1067,1
965.23,1
1193.6,1
1156.1,1
1172.3,1
1233.4,1
1192.4,1
1111.6,1
1117.8,1
1320.7,1
1481.9,1
1657.6,1
1765.8,1
1741,1
1830.9,1
1939.3,1
1819.6,1
1498.4,1
1913.4,1
1911,1
1770.1,1
2337,1
1915.8,1
1762.6,1
1617.1,1
1468.3,1
1618.7,1
1868.3,1
1766.5,1
1591.4,1
2495.9,1
3718.5,1
4872.2,1
5473.7,1
5087.5,1
6352.1,1
6911.1,1
7877.8,1
8232.8,1
8852.2,1
8698.1,1
9336.3,1
9640.9,1
9494.3,1
9928.4,1
10105,1
10691,1
9853.4,1
8968.5,1
9589.3,1
9522.4,1
10000,1
10672,1
10166,1
10772,1
10748,1
10997,1
10727,1
10208,1
8771.4,1
8740.6,1
8059.9,1
6835.4,1
6174.6,1
5194.4,1
5391.4,1
5005.4,1
5262.3,1
4944.9,1
5746.4,1
6333.7,1
6143.3,1
6396.5,1
6434.8,1
5970.5,1
5019.2,1
4185.7,1
3565.2,1
2904.5,1
2701.4,1
2044.9,1
2196.5,1
1867,1
2020.5,1
2299.6,1
2121.2,1
2039.3,1
1892.2,1
1875.8,1
1449,1
1517.9,1
1490.6,1
1364.6,1
1178,1
1142.5,1
936.4,1
805.97,1
1014.3,1
601.79,1
733.13,1
919.31,1
693.56,1
606.75,1
433.69,1
627.5,1
602.69,1
775.09,1
603.23,1
559.04,1
566.14,1
432.43,1
258.24,1
627.46,1
523.87,1
630.13,1
663.67,1
572.34,1
596.92,1
692.79,1
689.36,1
688.9,1
706.11,1
862.25,1
641.18,1
768.86,1
765.7,1
1086.2,1
1430.8,1
1408.8,1
1072.6,1
268.62,1
131.17,0
110.56,0
251.16,0
245.97,0
220.84,0
179.77,0
259.59,0
503.54,0
439.84,0
144.7,0
167.04,0
121.29,0
261.93,0
165.14,0
252.81,0
326.58,0
336.3,0
226.4,0
378.17,0
103.19,0
175.07,0
198.11,0
112.65,0
145.78,0
116.14,0
154.3,0
169.15,0
359.85,0
164.49,0
296.79,0
407.31,0
345.94,1
341.44,1
323.31,1
421.9,1
839.35,1
1258.4,1
1262.4,1
1023.9,1
1344.5,1
1476.5,1
1284.2,1
1146.2,1
1284.4,1
1008.4,1
1074.6,1
1366.3,1
1370.8,1
1496.4,1
1342.8,1
1122.2,1
1368.2,1
1647.9,1
1215.5,1
1439.4,1
1054,1
1220.6,1
1349,1
1221.2,1
1208.6,1
1054.6,1
1230.1,1
1292.4,1
896.71,1
1340.3,1
1240.9,1
1122.1,1
959.97,1
1115.5,1
1095.5,1
1027.6,1
927.25,1
774.17,1
532.4,1
310.04,1
91.613,1
457.16,1
163.34,1
373.22,1
494.68,1
221.25,1
157.77,1
125.64,1
156.93,0
265.05,0
243.76,0
239.92,0
139.4,0
201.92,0
438.47,0
103.24,0
233.39,0
232.21,0
427.23,0
199.77,0
247.9,0
117.1,0
168.86,0
148.55,0
69.012,0
104.18,0
309.45,0
511.95,1
1185.9,1
1289.9,1
1433.7,1
1456.3,1
1427.4,1
1287.2,1
1383.5,1
1265,1
993.81,1
985.57,1
1391,1
1075,1
1030.1,1
957.74,1
1027.5,1
933.75,1
1106.6,1
1161.3,1
1309.5,1
1071.3,1
1120.2,1
1262.8,1
1190.2,1
899.75,1
957.16,1
1114.5,1
1116,1
1049.8,1
1150,1
1099.8,1
945.68,1
882.4,1
1035.9,1
723.86,1
1146,1
1064.7,1
1119.7,1
820.35,1
1048.3,1
1022.5,1
1372.2,1
1185.7,1
1399.4,1
887.08,1
1151.3,1
1173.7,1
915.87,1
943.89,1
676.7,1
344.43,1
314.38,1
367.01,0
72.054,0
129.28,0
157.55,0
537.95,0
288.36,0
141.9,0
279.56,0
104.87,0
91.705,0
244.85,0
211.36,0
158.56,0
197.82,0
280.6,0
176.47,0
145.49,0
124.88,0
157.31,0
57.458,0
123.23,0
228.04,0
395.28,0
459.44,0
399.53,1
622.16,1
1076.8,1
1243.4,1
1479.1,1
1536.8,1
1109.6,1
1167.7,1
824.63,1
1093.3,1
1010.5,1
859.91,1
1174.2,1
1047.1,1
939.07,1
1071.7,1
1457,1
1109.9,1
1212.3,1
1391.5,1
1232.3,1
1360.3,1
1162.9,1
1309.9,1
1165.5,1
1412.2,1
1144,1
1190.9,1
1340.3,1
1197.3,1
1041.7,1
1152.1,1
1064.2,1
999.9,1
1069.1,1
848.27,1
703.96,1
1068.2,1
761.39,1
342.9,1
291.77,1
271.74,1
186.25,1
64.754,0
0,0
154.9,0
240.1,0
55.262,0
149.14,0
214.57,0
230.77,0
46.551,0
217.29,0
45.457,0
157.62,0
93.876,0
194.27,0
70.848,0
198.48,0
242.54,0
216.67,0
139.34,0
223.29,0
12.066,0
217.77,0
161.47,0
0,0
5.1887,0
395.52,1
671.42,1
1057.9,1
1312.9,1
1594.3,1
1436.6,1
1462.4,1
1310.3,1
1073.5,1
1216.2,1
1291.3,1
1183.5,1
797.76,1
881.99,1
1052.2,1
1088.3,1
797.13,1
961.56,1
734.34,1
897.26,1
873.38,1
956.74,1
820.62,1
1303.4,1
932.32,1
769.36,1
589.51,1
439.2,1
289,1
225.52,1
78.679,1
150.97,1
135.74,0
278.88,0
213.14,0
100.42,0
49.308,0
78.499,0
128.86,0
257.94,0
332.82,0
276.7,0
231.57,0
102.85,0
228.97,0
51.996,0
126.54,0
56.95,0
145.42,0
186.88,0
66.469,0
287.95,0
182.93,0
98.325,0
94.056,0
144.84,0
22.916,0
92.836,0
0,0
0,0
0,0
10.7,0
0,0
0,0
156.74,0
200.61,0
319.3,0
458.38,0
621.55,0
1407.3,0
1677.6,1
2388,1
2788.3,1
2335.1,1
2395.7,1
2498.9,1
2890.5,1
3072.9,1
2885.3,1
2310.1,1
2091.3,1
996.09,1
743.14,1
904.65,1
676.4,1
910.82,1
919.97,1
601.36,1
697.69,1
842.29,1
1040.1,1
1118.6,1
1478.8,1
888.66,1
899.96,1
1086,1
1414.8,1
1924,1
1973.6,1
1488.9,1
1075.7,1
932.54,1
1048.1,1
959.67,1
755.97,1
790.88,1
527.74,1
471.28,1
471.94,1
883.83,1
467.97,1
0,1
174.54,1
215.9,1
184.78,1
105.65,1
248.54,1
350.96,1
343.37,1
207.9,1
109.11,1
52.66,1
149.44,1
251.63,1
102.52,1
382.1,1
1131,1
1786.2,1
2566.5,1
2550.8,1
2869.9,1
2916.8,1
3265.2,1
3109,1
1957.6,1
2281.4,1
2724.6,1
1734.9,1
2100.1,1
2208.7,1
1899.1,1
944.93,1
734.36,1
785.31,1
508.2,1
672.78,1
603.8,1
559.64,1
671.69,1
726.57,1
810.9,1
1061.8,1
1555.8,1
1450,1
904.21,1
567.65,1
730.91,1
784.73,1
994.16,1
631.81,1
665.98,1
941.79,1
507.74,1
707.74,1
886.06,1
682.84,1
863.4,1
1055.8,1
863.94,1
644.3,1
834.67,1
808.99,1
1150.8,1
1280.8,1
1033.7,1
1148.1,1
1298.7,1
1719.6,1
1727.3,1
3221.6,1
5116.3,1
6156.9,1
5913.3,1
5943.4,1
5592.1,1
4795.4,1
5589.3,1
5714.6,1
5686.5,1
5683.5,1
5836.3,1
6000.5,1
5991.2,1
5946.5,1
6401.1,1
6326.1,1
6276.5,1
6824.7,1
6299.5,1
6358.1,1
6408.8,1
5848.5,1
6066.2,1
5703.9,1
5651.8,1
5617.7,1
5655.4,1
5278.7,1
5022.2,1
5926.4,1
5456.9,1
5020.3,1
4570.3,1
4175.4,1
3933.1,1
4422.4,1
4454.2,1
4240.9,1
4733.3,1
4414.7,1
4555.5,1
4118.8,1
3671,1
3908.2,1
2929.4,1
2777.9,1
2482.7,1
4475.1,1
5841.7,1
4853.8,1
8100.9,1
8043.5,1
7520.5,1
7135.6,1
6033.3,1
5870,1
4777.2,1
4874.9,1
4610.3,1
4079.7,1
4432,1
2988.2,1
3180.2,1
2826.8,1
2193.1,1
2397.4,1
2094.8,1
2416.8,1
2528.5,1
3445,1
2583.7,1
1990.6,1
2209.3,1
2147.7,1
1210,1
681.72,1
1030.8,1
739.59,1
744.59,1
649.48,1
466.62,1
323.88,1
333.53,1
427.16,1
286.08,1
255.39,1
157.37,1
226.8,1
196.27,1
124.37,1
166.11,1
146.1,1
164.95,1
123.99,1
91.412,1
132.44,1
82.737,1
42.737,1
74.815,1
16.913,1
107.02,1
82.504,1
108.38,1
16.373,1
28.208,1
0,1
0,1
36.335,1
129.61,1
83.786,1
121.59,1
345.95,1
170.24,1
491.86,1
277.27,1
332.05,1
95.855,1
185.9,1
126.99,1
228.77,1
336.28,1
574.64,1
453.76,1
637.46,1
510.74,1
434.15,1
852.17,1
669.81,1
636.64,1
462.45,1
709.53,1
705.24,1
511.26,1
632.62,1
861.3,1
835.28,1
540.9,1
746.12,1
647.94,1
878.74,0
949.82,0
1469.8,0
2523.3,0
2682.2,0
2218.9,0
994.29,0
837.47,0
874.65,0
947.48,0
642.44,0
623.01,0
381.98,0
749.07,0
753.86,0
1150.5,0
856.32,0
437.03,0
535.46,0
754.6,0
862.99,0
575.21,0
1033.9,0
1235.7,0
909.04,0
519.01,0
1020.3,0
1011.5,0
538.9,0
526.75,0
398.69,0
465.55,0
428.81,1
691.71,1
861.6,1
831.17,1
890.49,1
981.49,1
1396.1,1
771.29,1
941.76,1
958.01,1
615.16,1
498.76,1
480.04,1
498.42,1
556.31,1
567.02,1
545.89,1
458.45,1
658.26,1
673.11,1
538.81,1
511.84,1
780.4,1
1400.7,1
2851.6,1
2695.6,1
3732,1
4048.2,1
4393.8,1
4443.2,1
4880.9,1
4938.5,1
5196.9,1
4254.6,1
3988.7,1
4177.6,1
5087.8,1
5330,1
5233.1,1
4693.2,1
5818.7,1
6517.2,1
5998.9,1
6042.7,1
6600.1,1
6339.8,1
6515.4,1
7076.1,1
6678.6,1
7262.5,1
7835.4,1
6486.9,1
6223.1,1
6382.6,1
5848.1,1
5914.9,1
6323.6,1
5865.1,1
4928.8,1
5076.8,1
5056.7,1
4870.4,1
5259.3,1
5196,1
5193.8,1
4838.6,1
4284.6,1
5065.5,1
4793.5,1
4919.2,1
4065.3,1
4801.6,1
3822,1
4399.8,1
3728.7,1
3742.3,1
4281.6,1
4485.4,1
3946.4,1
3905.8,1
3953.1,1
3817.5,1
3389.4,1
3547.2,1
3253.1,1
3218.7,1
3297.1,1
3017.1,1
3413.4,1
3549.1,1
3552.5,1
3692.2,1
2829.2,1
3308.6,1
2444.2,1
2335.7,1
2594.2,1
1857.5,1
2088.7,1
2279.3,1
2416.6,1
1843.6,1
1993,1
2019.4,1
1655.9,1
1371.6,1
1333.9,1
1108.9,1
928.83,1
1021.9,1
947.7,1
794.59,1
1023.4,1
1094.2,1
835.78,1
688.31,1
430.66,1
633.73,1
617.74,1
527.32,1
462.37,1
263.26,1
296.83,1
175.21,1
168.07,1
257.88,1
569.31,1
535.74,1
450.65,1
237.22,1
312.96,1
280.61,1
95.477,1
523.46,1
327.14,1
552.87,1
415.02,1
1488,1
2489.8,1
1328.6,1
1152.7,1
1184.8,1
1042.6,1
1079,1
1123.8,1
1251.2,1
1499.1,1
1257.1,1
1502.1,1
1257.4,1
906.17,1
961.99,1
752.37,1
511,1
539.78,1
974.85,1
1006,1
1047.1,1
1008.5,1
1052.6,1
1020,1
1049.4,1
789.97,1
1044.4,1
1484.3,1
1029.5,1
830.37,1
1014.8,1
1154.3,1
1173.7,1
1028.8,1
942.25,1
290.17,0
1002.7,0
992.11,0
842.01,0
1887.2,0
2183.2,0
1919,0
2188.4,0
1997.6,0
2862.4,0
2560.3,0
1759.5,0
1565.7,0
1298.6,0
639.04,0
531.91,0
601.05,0
683.52,0
703.38,0
391.46,0
1776.1,0
1397.6,0
1368.3,0
777.31,0
430.68,0
1586.5,0
2154,0
1577.3,0
1048.8,0
820.47,0
947.35,0
1440,0
799.2,0
690.65,0
623.91,0
692.52,1
560.45,1
775.44,1
580.72,1
631.22,1
804.13,1
582.08,1
693.98,1
554.33,1
431.39,1
694.63,1
382.53,1
372.74,1
496.71,1
381.72,1
345.89,1
425.39,1
433.68,1
422.58,1
351.05,1
242.48,1
171.8,1
286.43,1
381.24,1
1003,1
836.13,1
804.37,1
689.96,1
621.06,1
718.13,1
635.17,1
1105.4,1
877.6,1
1431.7,1
2372,1
3071.9,1
2824.1,1
3212.5,1
2994.5,1
3268.8,1
2793.4,1
2598.3,1
2978.5,1
4645.8,1
4317.8,1
5104.3,1
4963.2,1
4476.1,1
5277.8,1
5002.2,1
5325.2,1
4732.1,1
4425.9,1
4054.2,1
4126.5,1
3826.1,1
4304.4,1
3607.6,1
4701.5,1
3896.2,1
3140.3,1
3851.6,1
3827.1,1
3697.1,1
3990.3,1
4419.3,1
3726,1
3455.2,1
4276,1
3844.4,1
3835.1,1
3997,1
4092.3,1
3935,1
4224.6,1
4009.1,1
3963.8,1
3875.2,1
3836.5,1
3078.2,1
2689.9,1
2308.6,1
1916.4,1
2464.4,1
2689.3,1
1852.7,1
2164.5,1
1942,1
1995.9,1
2248.3,1
2341,1
2398.2,1
2183.4,1
2533.6,1
2156.4,1
1801.8,1
1999.8,1
2201.2,1
1899.1,1
1580.4,1
1722.3,1
1704.6,1
2329.1,1
2094.3,1
1841.1,1
1660.5,1
1478.5,1
1896.1,1
1763.9,1
1671.9,1
2022.3,1
2197.5,1
1595.6,1
2248.5,1
2090,1
1547.2,1
2195.3,1
2378,1
1350.2,1
1431.6,1
1786.3,1
1344.9,1
2018.8,1
1707.3,1
2174.8,1
1321.8,1
1755.1,1
1035.5,1
1041.4,1
1012,1
771.14,1
1008.6,1
799.14,1
454.36,1
599.83,1
601.61,1
407.03,1
347.43,1
533.83,1
506.98,1
612.04,1
1114.6,1
401.83,1
382.27,1
333.41,1
274.21,1
115.04,1
96.057,1
63.523,1
86.623,1
8.9295,0
158.71,0
99.762,0
109.16,0
0,0
128.65,0
77.83,0
0,0
304.22,0
247.47,0
123.95,0
381.84,0
344.66,0
358.16,0
935.92,0
2319.5,0
1788.2,0
935.76,0
826.35,0
750.72,0
777.83,0
177.97,0
516.47,0
648.87,0
521.17,0
867.93,0
606.67,0
619.95,0
581.64,0
480.31,0
111.35,0
286.71,0
254.04,0
305.43,0
465.37,0
468.29,0
550.79,0
677.14,0
337.08,0
475.39,0
368.04,0
145.68,0
198.47,0
154.83,0
86.459,0
48.618,0
88.056,0
135.39,0
32.793,0
106.18,0
129.42,0
0,0
46.929,0
123.2,0
135.83,0
725.43,0
428.44,0
441.31,0
766.5,0
1004.2,0
1096.9,1
798.22,1
775.91,1
636.05,1
688.6,1
708.95,1
658.88,1
575.82,1
987.98,1
1659.6,1
1480.3,1
1324.6,1
2036.7,1
1787.2,1
2151.9,1
2422,1
2115.6,1
2571.1,1
2139,1
2262.1,1
2599.3,1
1949.2,1
1635.6,1
1628,1
2106.7,1
1523,1
1295.2,1
1413.5,1
1569.9,1
1806.9,1
1891.6,1
1499.8,1
946.18,1
934.25,1
1103.6,1
910.45,1
1116.6,1
1719.9,1
2155,1
2877,1
2597.2,1
3331.3,1
4445,1
4671.7,1
4371.2,1
3512.7,1
4786.9,1
4592.8,1
4592.2,1
4123.9,1
3489.5,1
4070.2,1
3460.6,1
3567.9,1
3600.7,1
3474.7,1
3721.3,1
4932,1
5400.2,1
4692.9,1
4485.5,1
5165.5,1
3432.4,1
4189.4,1
2908.6,1
3701.3,1
2799.9,1
2479.6,1
2472.8,1
2590.6,1
2218,1
1805.4,1
1629,1
1413.1,1
1532.3,1
1729.6,1
2526.3,1
2443.9,1
2571.5,1
2841,1
2119.7,1
1554.2,1
2143.9,1
1933.1,1
1338.1,1
862.97,1
982.42,1
1163.2,1
1128.4,1
960.25,1
918.3,1
671.34,1
622.09,1
493.06,1
526.29,1
313.27,1
290.12,1
271.79,1
286.14,1
329.85,1
477.93,1
505.47,1
409.19,1
378.8,1
292.89,1
312.65,1
75.124,1
212.71,1
271.72,1
900.69,1
491.63,1
443.6,1
557.3,1
599.39,1
689.62,1
657.82,1
869.04,0
1283.1,0
1597.7,0
1271.3,0
777.69,0
565.45,0
403.67,0
517.47,0
571.24,0
360.09,0
155.27,0
517.74,0
467.66,0
446.38,0
245.7,0
245.32,0
222.35,0
235.87,0
216.6,0
105.54,0
35.791,0
50.476,0
77.552,0
250.25,0
177.48,0
196.66,0
251.26,0
87.691,0
202.23,0
0,0
0,0
25.366,0
38.905,0
44.74,0
18.51,0
1.9576,0
0,0
8.8126,0
58.794,0
122.49,0
234.92,0
552.38,1
784.79,1
829.41,1
871.41,1
764.83,1
708.15,1
712.47,1
597.29,1
589.66,1
550.06,1
668.47,1
557.25,1
538.44,1
521.19,1
552.48,1
575.36,1
641.82,1
636.66,1
560.48,1
772.72,1
750.89,1
740.12,1
745.88,1
653.14,1
651.53,1
632.07,1
564.29,1
523.58,1
549.69,1
576.6,1
389.54,1
479.78,1
447.68,1
429.07,1
386.59,1
287.79,1
310.42,1
382.76,1
264.08,1
280.48,1
168.3,1
85.346,1
117.5,1
343.22,1
253.46,1
207.61,1
102.61,1
103.92,1
58.469,1
20.68,1
33.705,1
32.775,1
79.448,1
71.048,1
62.177,1
104.87,1
139.22,1
153.61,1
88.35,1
155.28,1
177.76,1
157.57,1
269.55,1
244.34,1
201.74,1
188.31,1
286.71,1
238.02,1
194.77,1
174.8,1
230.73,1
262.17,1
254.29,1
256.87,1
275.26,1
331.99,1
386.24,1
363.59,1
331.94,1
353.81,1
428.21,1
307.6,1
409.24,1
322.54,1
340.37,1
320.55,1
381.94,1
242.08,1
326.45,1
396.63,1
279.03,1
281.65,1
163.5,1
177.11,1
189.76,1
339.51,1
321.4,1
340.7,1
362.19,1
543.68,1
594.65,1
617.2,1
908.96,1
1016.4,1
1029.3,1
980.53,1
1154.4,1
1460.2,1
1515.8,1
2783.4,1
4736.9,1
5743.7,1
5578.5,1
5791.8,1
5391.7,1
4731.4,1
5448.5,1
5419.3,1
5531,1
5614.8,1
5706.2,1
5921.5,1
5562.7,1
5876.8,1
5850.7,1
5904.4,1
6104.1,1
6447.8,1
6009.1,1
6405.9,1
5959,1
5837.7,1
6089.5,1
5539.4,1
5577,1
5445.8,1
5387.1,1
5364.1,1
4857.3,1
5698.3,1
5261.3,1
4694.5,1
4476.4,1
4181.5,1
3776.5,1
4279.1,1
4069.9,1
3790.2,1
4239.8,1
3959.7,1
3868.3,1
3639.7,1
2817.1,1
3087.9,1
2387.3,1
2312.4,1
2122.3,1
2177.8,1
1711.8,1
1629.4,1
1935.1,1
1516.2,1
1520.1,1
1267.4,1
1444.3,1
1256,1
1219.8,1
1294.8,1
1212.7,1
1217.8,1
1366.4,1
1228.9,1
1278.3,1
1274.6,1
1117.3,1
1146.2,1
890.04,1
984.83,1
1024,1
803.17,1
648.08,1
574.68,1
441.51,1
413.67,1
390.03,1
370.71,1
281.34,1
346.6,1
329.26,1
359.42,1
434.26,1
270.73,1
287.15,1
385.01,1
440.15,1
279.81,1
260.51,1
293.22,1
273.4,1
280.8,1
341.26,1
338.35,1
232.89,1
181.61,1
255.95,1
193.22,1
192.27,1
214.05,1
194.81,1
145.37,1
107.53,1
179.13,1
89.353,1
196.44,1
85.666,1
199.84,1
174.08,1
22.273,1
53.448,1
47.374,1
91.067,1
117.68,1
37.727,1
56.956,1
77.814,1
62.419,1
62.009,1
18.151,1
61.175,1
55.876,1
64.559,1
69.396,1
40.765,1
114.74,1
182.03,1
136.88,1
227.8,1
242.84,1
205.61,1
63.76,1
54.141,1
97.731,1
159.15,1
86.625,1
84.075,1
103.31,1
164.24,1
250.44,1
397.48,1
187.67,0
186.17,0
291.98,0
245.8,0
222.69,0
177.59,0
246.04,0
119.17,0
46.536,0
0,0
16.92,0
0,0
10.103,0
2.9914,0
41.293,0
0,0
15.794,0
76.09,0
14.402,0
38.013,0
0,0
124.18,0
12.518,0
62.075,0
12.515,0
20.937,0
11.242,0
63.064,0
13.415,0
50.714,0
13.079,0
387.42,0
209.06,1
305.39,1
368.2,1
436.38,1
495.84,1
484.16,1
607.31,1
544.79,1
555.47,1
618.4,1
615.16,1
657.46,1
536.62,1
717.74,1
568.32,1
607.36,1
551.09,1
626.62,1
783.94,1
546.83,1
492.37,1
629.96,1
794.01,1
1286.5,1
2430.1,1
2517.1,1
3078.2,1
3605.3,1
3980.2,1
3902.3,1
4941.4,1
4554.9,1
5041.2,1
4001.2,1
3387.8,1
4163.4,1
4864.9,1
5170.6,1
4981.6,1
4083.1,1
5398.7,1
6267.3,1
5573.8,1
5854.9,1
6423.7,1
6043,1
6353.8,1
7213.7,1
6352,1
7312.4,1
7508.7,1
6453.8,1
5858.2,1
5983.7,1
5377.9,1
5776.3,1
5902.5,1
5656.6,1
4704.4,1
4853.7,1
4657.2,1
4442.4,1
4728,1
4693.1,1
4313.1,1
4178.3,1
3814.3,1
4145.8,1
4426.6,1
3992.8,1
3640.3,1
4518.2,1
3392.3,1
4201,1
3271.1,1
3131.1,1
3356.8,1
3030,1
3121.4,1
2722.2,1
3015.2,1
2964.1,1
2864.1,1
2825.5,1
2922.9,1
2835.6,1
2935,1
2744.3,1
3136.8,1
3308.8,1
3342,1
3351.6,1
2714.6,1
3211.6,1
2321,1
1984.1,1
1865.4,1
1550.1,1
1772.3,1
1724.9,1
1799.7,1
1496.7,1
1491,1
1633.7,1
1221.5,1
1081.6,1
944.11,1
796.57,1
721.13,1
633.91,1
515.13,1
449.66,1
528.31,1
536.95,1
483.22,1
437.66,1
309.3,1
170.8,1
146.76,1
128.03,1
92.323,1
105.19,1
26.693,1
36.94,1
24.01,1
26.882,1
191.09,1
75.261,1
28.461,1
110.88,1
178.58,1
138.97,1
194.97,1
194.17,1
188.62,1
262.35,1
321.91,1
357.46,1
373.93,1
453.69,1
564.64,1
647.08,1
583.46,1
610.93,1
560.24,1
625.27,1
719.14,1
644.82,1
592.82,1
489.66,1
463.01,1
432.94,1
523.6,1
509.12,1
394.35,1
354,1
433.31,1
478.55,1
497.56,1
449.02,1
577.15,1
544.48,1
455.2,1
439.14,1
471.86,1
415.31,1
329.38,1
301.81,1
308.75,1
191.65,1
250.98,1
307.79,1
174.72,0
62.303,0
41.373,0
15.199,0
21.49,0
43.611,0
5.4936,0
56.91,0
2.84,0
24.447,0
4.1261,0
37.665,0
93.485,0
37.862,0
9.2821,0
51.556,0
43.575,0
0,0
13.581,0
3.1409,0
34.865,0
104.5,0
18.105,0
10.792,0
132.55,0
9.1608,0
0,0
25.055,0
41.952,0
25.211,0
11.456,0
13.26,0
43.141,0
144.7,0
179.78,0
238.44,1
331.61,1
340.45,1
391.87,1
492.25,1
489.97,1
422.24,1
493.94,1
424.77,1
535.46,1
495.66,1
496.47,1
445.61,1
553.84,1
473.87,1
518.27,1
506.74,1
559.32,1
625.33,1
462.37,1
520.82,1
396.2,1
466.64,1
439.57,1
576.54,1
586.88,1
748.72,1
544.37,1
387.15,1
586.43,1
621.46,1
748.17,1
1047.7,1
1568.5,1
2028.8,1
2514.4,1
2363.8,1
3100.7,1
2623.8,1
2928.4,1
2642.3,1
2249.4,1
2840.9,1
4837.4,1
4110.3,1
4725.7,1
4452.4,1
3817.1,1
4341,1
4619.8,1
5193.6,1
4347.4,1
3764.1,1
3754.8,1
3993.6,1
3584.3,1
4002.3,1
3373.6,1
4135,1
3627.8,1
3182.4,1
3618.8,1
3607.3,1
3716.4,1
3919,1
3489.6,1
2993.4,1
3263.8,1
3895.5,1
3538.1,1
3540,1
3668.4,1
3714.7,1
3535.6,1
3486.2,1
3313.7,1
3248.7,1
3233.6,1
3257.1,1
2727.5,1
2230,1
1813.9,1
1325.5,1
1563.3,1
2029.8,1
1433.7,1
1748.1,1
1584,1
1433,1
1363.5,1
1425,1
1547.4,1
1484.4,1
1806.2,1
1414.1,1
1276.1,1
1401.8,1
2000,1
1784.4,1
1334.6,1
1395.9,1
1618.1,1
2221,1
1992,1
1717.1,1
1325.9,1
1140.1,1
1678.2,1
1804.9,1
1345.8,1
1540.5,1
2064.9,1
1122.3,1
1893.7,1
1371.6,1
1250,1
1869.5,1
2184.7,1
1011.7,1
934.06,1
1434.7,1
802.03,1
1421.5,1
1303.7,1
1798.5,1
1019.9,1
1521.7,1
758.75,1
704.65,1
616.18,1
530.75,1
555.98,1
473.27,1
282.63,1
442.45,1
490.73,1
621.93,1
488.97,1
439.98,1
412.27,1
302.2,1
378.84,1
217.39,1
252.54,1
238.21,1
141.48,1
186.16,1
136.48,1
86.302,1
62.683,1
29.593,0
94.287,0
56.546,0
34.657,0
39.119,0
35.396,0
43.068,0
55.803,0
24.541,0
2.6213,0
0,0
51.589,0
10.498,0
7.7558,0
5.1325,0
23.918,0
0,0
26.007,0
41.612,0
41.943,0
39.193,0
35.917,0
5.1321,0
37.967,0
83.914,0
0.29973,0
14.234,0
30.984,0
45.384,0
43.914,0
3.8616,0
14.667,0
16.989,0
41.424,0
36.295,0
35.737,0
20.781,0
18.805,0
16.003,0
45.66,0
0.90538,0
14.378,0
27.688,0
1.7156,0
34.27,0
62.218,0
11.725,0
15.237,0
60.181,0
18.013,0
44.997,0
9.2985,0
41.494,0
31.755,0
17.287,0
29.986,0
3.1603,0
22.079,0
48.799,0
169.66,0
279.41,1
433.9,1
397.54,1
462.64,1
390.74,1
417.54,1
297.46,1
381.69,1
352.94,1
319.63,1
420.8,1
378.37,1
387.46,1
439.91,1
492.06,1
460.18,1
615.69,1
650.87,1
593.52,1
642.52,1
701.99,1
697.45,1
738.17,1
727.43,1
767.39,1
830.68,1
635.16,1
676.62,1
688.01,1
723.15,1
767.58,1
695.38,1
540.61,1
639.88,1
963.42,1
853.65,1
962.03,1
1137,1
1761.1,1
2617.3,1
2007,1
2971.2,1
4083.8,1
4291.6,1
4126.3,1
3106.9,1
4324.7,1
4520.9,1
4451.6,1
3748.3,1
3080.3,1
3649.5,1
2853.2,1
3320.3,1
2748.3,1
3117.4,1
3126.3,1
4053,1
4710.6,1
3973.4,1
3770,1
4329.3,1
2991.3,1
3649.1,1
2605.8,1
2971.8,1
2058.7,1
2217.5,1
1868.9,1
1935.2,1
1899.8,1
1598.8,1
1381.5,1
1081.8,1
1223.6,1
1326.2,1
1444.5,1
1536.6,1
1646.5,1
1401.7,1
1345.9,1
1277.1,1
1409.1,1
1326.6,1
861.59,1
733.06,1
789.2,1
859.14,1
884.4,1
844.56,1
763.32,1
814.02,1
669.24,1
522.02,1
436.47,1
369.75,1
363.4,1
351.83,1
290.86,1
341.1,1
428.21,1
452.53,1
357.18,1
266.36,1
251.69,1
146.09,1
132.04,1
176.75,1
100.18,1
217.63,1
180.6,1
35.942,1
13.284,1
60.2,1
84.339,1
25.752,1
16.564,0
83.358,0
81.574,0
27.338,0
18.802,0
14.268,0
28.005,0
29.632,0
30.482,0
14.497,0
7.9269,0
35.614,0
27.769,0
41.285,0
54.899,0
7.3514,0
31.464,0
5.4065,0
10.676,0
23.951,0
1.3436,0
27.016,0
28.627,0
30.734,0
12.25,0
17.008,0
40.382,0
28.72,0
68.186,0
70.234,0
0,0
18.663,0
38.167,0
0,0
14.686,0
0.072851,0
92.018,0
127.28,0
240.84,0
144.73,0
322.05,0
580.54,1
808.81,1
954.5,1
822.28,1
1099.2,1
908.7,1
905.62,1
925.11,1
702.74,1
613.62,1
702.12,1
746.29,1
831.77,1
755.02,1
780.95,1
981.67,1
957.78,1
822.21,1
823.86,1
1059.9,1
1125.3,1
1184.3,1
952.71,1
812.04,1
1014.2,1
787.24,1
881.67,1
844.45,1
480.29,1
647.63,1
934.91,1
554.19,1
659.23,1
780.09,1
642.23,1
437.18,1
761.92,1
488.62,1
412.85,1
464.31,1
272.98,1
227.66,1
409.92,1
391.27,1
358.85,1
378.75,1
169.86,1
215.19,1
142.69,1
380.45,1
483.96,1
444.29,1
276.11,1
322.88,1
648.8,1
354.43,1
440.97,1
311.72,1
431.43,1
653.68,1
528.79,1
464.74,1
480.26,1
446.33,1
612.21,1
481.61,1
542.13,1
380.03,1
276.75,1
610.37,1
594.88,1
653.07,1
517.4,1
632.55,1
340.27,1
468.6,1
495.11,1
513.18,1
450.68,1
638.72,1
551.11,1
418.43,1
478.41,1
545.18,1
407.15,1
339.43,1
531.42,1
590.63,1
310.7,1
369.23,1
480.39,1
877.16,1
326.12,1
647.16,1
555.39,1
450.71,1
577.27,1
773.74,1
715.9,1
759.56,1
946.65,1
1083.8,1
1139.4,1
1062.3,1
1336.9,1
1297.6,1
1064.1,1
1419.3,1
1710.1,1
2907.3,1
4724.6,1
5935.1,1
5705,1
5859,1
5823.2,1
4814.4,1
5696.8,1
5692.3,1
5722.5,1
5569.2,1
5496.4,1
5601.4,1
5857.8,1
5939.8,1
5968.5,1
6315.1,1
6253.1,1
6593.7,1
6198.1,1
6305.2,1
5928.1,1
5824.6,1
5832.7,1
5802.6,1
5677.8,1
5697.4,1
5649.3,1
5400.2,1
5113.4,1
5887.8,1
5627.7,1
5206.2,1
4596.2,1
4223.2,1
4234,1
4363.5,1
4191.9,1
4105.5,1
4294.8,1
4027.9,1
4128.8,1
3668.1,1
3053.4,1
3072.2,1
2507.8,1
2379.9,1
2225.5,1
2316.7,1
1930.4,1
1650.9,1
1943.4,1
1811.9,1
1643.8,1
1463.7,1
1560.7,1
1440.4,1
1381.2,1
1560,1
1541.8,1
1462.6,1
1504.1,1
1545.9,1
2132.6,1
1715.7,1
1734.2,1
1508.1,1
1407.8,1
1647.8,1
1202.9,1
1075.2,1
921.65,1
866.88,1
760.7,1
575.2,1
580.74,1
613.31,1
577.68,1
995.07,1
1008.4,1
597.94,1
575.79,1
588.12,1
421.88,1
387.8,1
353.74,1
631.17,1
586.31,1
485.6,1
451.71,1
683.08,1
745.01,1
658.89,1
478.67,1
452.09,1
637.99,1
531.93,1
341.14,1
242.17,1
301.35,1
276.13,1
313.64,1
341.54,1
321.63,1
619.55,1
522.74,1
380.68,1
313.18,1
425.18,1
422.8,1
319.03,1
412.2,1
422.84,1
459.14,1
372.92,1
485.96,1
270.59,1
230.84,1
284.92,1
374.58,1
313.42,1
324.23,1
465.2,1
439.92,1
280.34,1
160.26,1
226.28,1
125.77,1
69.77,1
225.4,1
80.667,1
10.89,1
82.652,1
71.239,1
100.49,1
93.292,1
35.359,1
94.797,1
140.56,1
136.4,1
0,0
45.198,0
91.335,0
125.98,0
215.61,0
134.88,0
30.831,0
68.52,0
45.737,0
24.728,0
32.273,0
0,0
141.9,0
194.49,0
25.152,0
4.665,0
27.401,0
0,0
9.8061,0
50.557,0
44.599,0
0,0
103.8,0
73.737,0
14.825,0
12.916,0
1.1352,0
0.43609,0
135.54,0
117.87,0
56.205,0
114.23,0
322.7,1
269.16,1
469.67,1
433.49,1
571.31,1
596.04,1
567.75,1
639.45,1
623.05,1
644.65,1
685.51,1
682.44,1
751.12,1
787.67,1
648.35,1
635.72,1
732.4,1
851.35,1
690.63,1
620.68,1
687.96,1
716.77,1
968.76,1
1435.6,1
2485.1,1
2548,1
3303.6,1
3618.2,1
4180.6,1
4042.4,1
4926.9,1
4700,1
5253.6,1
4223.7,1
3870,1
4118,1
4969.9,1
5413.5,1
5037.3,1
4365.6,1
5508.3,1
5804.5,1
5629.7,1
5871.5,1
6558.5,1
6361.7,1
6750.1,1
7342.7,1
6666.2,1
7445.5,1
7737.8,1
6673.9,1
5817.8,1
6449.3,1
5932.7,1
6007.4,1
6300.7,1
5829.8,1
5063.4,1
4984.2,1
4918,1
4701.4,1
4864.1,1
4799.1,1
4745.5,1
4152.8,1
3972.4,1
4404.7,1
4302,1
4329,1
3665.1,1
4478.2,1
3603.7,1
4199.4,1
3536.4,1
3543.1,1
3504.4,1
3413.9,1
3361.3,1
2909.9,1
3159.9,1
3322.6,1
3129.5,1
3119,1
2918.4,1
2968.1,1
3112.2,1
3017.5,1
3469.7,1
3679.3,1
3530.5,1
3633.8,1
2939.1,1
3321.3,1
2521.8,1
2252.5,1
2091.7,1
1832.7,1
1951.9,1
1923.1,1
2167.8,1
1741.9,1
1770.2,1
1752.2,1
1475.4,1
1217,1
1148.4,1
874.54,1
759.35,1
717.72,1
513.1,1
640.77,1
679.56,1
729.82,1
675.15,1
510.09,1
334.8,1
239.95,1
238.02,1
239.91,1
318.07,1
140.43,1
207.8,1
204.23,1
195.44,1
206.19,1
276.54,1
300.29,1
166.15,1
195.67,1
331.41,1
211.14,1
215.58,1
340.55,1
282.24,1
374.95,1
552.34,1
536.41,1
521.53,1
688.1,1
805.34,1
791.77,1
658.34,1
794.88,1
708.5,1
858.85,1
610.33,1
710.32,1
585.3,1
692.3,1
592.28,1
548.58,1
622.16,1
657.55,1
540.78,1
579.76,1
514.52,1
538.91,1
584.09,1
579.47,1
500.23,1
543.92,1
475.26,1
496.4,1
499.74,1
508.22,1
498.03,1
443.12,1
447.94,1
378.68,1
342.25,1
395.75,1
279.05,0
165.19,0
143.78,0
107.2,0
169.76,0
339.75,0
294.15,0
88.754,0
90.472,0
58.917,0
170.66,0
106.25,0
158.94,0
195.92,0
198.59,0
143.68,0
245.15,0
47.28,0
107.63,0
122.44,0
55.869,0
82.19,0
58.478,0
85.669,0
98.984,0
241.84,0
94.041,0
191.69,0
253.69,0
118.46,0
142,0
209.52,0
183.05,0
309.92,0
433.29,0
519.46,1
499.19,1
455.84,1
559.07,1
639.14,1
619.71,1
770.23,1
601.91,1
500.6,1
680.66,1
712.77,1
847.6,1
714.46,1
675.89,1
725.33,1
778.8,1
647.93,1
717.04,1
748.93,1
661.47,1
601.43,1
620.06,1
785.45,1
495.91,1
693,1
724,1
837.58,1
666.03,1
769.98,1
812.8,1
522.62,1
795.13,1
1262.8,1
1675.9,1
2301.6,1
2421.2,1
2331.3,1
3022.6,1
2842.8,1
3277.6,1
2540.6,1
2382.9,1
2907.6,1
4811.2,1
4330.7,1
4705.9,1
4504.9,1
4098.3,1
4292.8,1
4773.3,1
5407.2,1
4473,1
4227.6,1
3832.3,1
4315.9,1
3952.1,1
4193.7,1
3412.2,1
4191.3,1
3521.3,1
2956.2,1
3526.9,1
3251.5,1
3708,1
3630,1
3138.8,1
2977.4,1
3324,1
4113.4,1
3573,1
3401.3,1
3722.6,1
3820.8,1
3381.4,1
3751.3,1
3516.6,1
3636.1,1
3428,1
3205,1
2817.2,1
2218.6,1
1869.9,1
1152.2,1
1695.3,1
2131.3,1
1513.2,1
1949.6,1
1720.4,1
1391.1,1
1421.3,1
1495.1,1
1640.6,1
1528.5,1
2074.8,1
1462.8,1
1401.4,1
1421.2,1
1921.9,1
1776.3,1
1564.3,1
1543.6,1
1907.1,1
2436.6,1
2122.9,1
1805,1
1408,1
1463.4,1
1911.9,1
1964.6,1
1446.8,1
1733.5,1
2335.1,1
1314.9,1
2166.7,1
1529.6,1
1327.6,1
2063.7,1
2495,1
1238.3,1
1118.1,1
1606.8,1
1254.5,1
1679.8,1
1470.9,1
2043,1
1009.5,1
1672.8,1
962.48,1
810.63,1
698.92,1
687.53,1
830.48,1
509.06,1
431.11,1
559.89,1
642.96,1
481.43,1
536.62,1
630.06,1
707.78,1
521.19,1
405.98,1
388.99,1
553.75,1
367.99,1
225.3,1
285.93,1
203.75,1
310.8,1
99.294,1
141.82,0
139.25,0
79.159,0
148.4,0
118.81,0
107.36,0
45.153,0
197.47,0
67.024,0
88.292,0
204.13,0
126.44,0
163.11,0
101.97,0
187.6,0
170.85,0
144.48,0
61.488,0
104.46,0
156.88,0
76.696,0
130.97,0
254.58,0
135.37,0
149.09,0
113.37,0
91.267,0
78.994,0
101.79,0
142.97,0
83.24,0
194.22,0
185.48,0
76.361,0
62.06,0
0,0
147.78,0
198.76,0
57.095,0
105.27,0
167.64,0
146.95,0
54.496,0
185.64,0
54.028,0
143.44,0
89.489,0
164.37,0
68.786,0
165.44,0
191.93,0
182.16,0
116.86,0
179.45,0
24.204,0
177.49,0
134.21,0
14.502,0
168.2,0
416.87,0
365.64,1
448.5,1
579.01,1
688.36,1
440.46,1
452.17,1
364.74,1
323.43,1
494.12,1
402.73,1
506.7,1
504.29,1
514.18,1
444.88,1
401.92,1
546.77,1
607.27,1
638.2,1
771.86,1
727.62,1
807.56,1
843.2,1
804.27,1
900.99,1
740.7,1
831.12,1
766.78,1
653.6,1
790.7,1
777.81,1
1052.6,1
827.27,1
819.08,1
832.6,1
1111.6,1
897.23,1
1090.3,1
1239.9,1
2228,1
2808.1,1
2216,1
3063.2,1
4177,1
4587.9,1
4186.8,1
3169.1,1
4418.4,1
4290,1
4455.5,1
3950.3,1
3236.7,1
3587.3,1
3035.3,1
3189.2,1
2824,1
3101.4,1
3298.7,1
4155.1,1
4918.9,1
4051,1
4062.3,1
4519.5,1
3193.3,1
3765.2,1
2926.4,1
2991.5,1
2192.8,1
2066.9,1
2021.3,1
1998.3,1
2184.4,1
1499.1,1
1237.6,1
1290.1,1
1488.4,1
1473.1,1
1537.2,1
1684.3,1
1837.4,1
1786.6,1
1606.3,1
1439.6,1
1574,1
1227.3,1
954.51,1
937.62,1
792.07,1
746.58,1
1025.2,1
918.87,1
876.44,1
876.85,1
737.51,1
609.93,1
634.81,1
516.02,1
341.56,1
362.48,1
529.6,1
703.43,1
474.03,1
481.03,1
558.19,1
485.65,1
268.01,1
267.09,1
383.74,1
162.64,1
205.63,1
258.28,1
139.52,1
114.13,1
198.38,1
99.98,1
111.24,1
83.187,1
14.899,0
138.15,0
110.88,0
135.39,0
132.26,0
97.273,0
70.297,0
88.328,0
43.211,0
94.496,0
52.33,0
88.812,0
151.16,0
91.875,0
75.238,0
16.717,0
17.037,0
97.348,0
0,0
70.703,0
188,0
89.107,0
141.31,0
76.162,0
137.14,0
0,0
90.064,0
32.392,0
50.456,0
33.358,0
0,0
0,0
11.577,0
0,0
0,0
236.98,1
532.32,1
613.73,1
788.27,1
1015.2,1
1592.3,1
2086.6,1
2470,1
2423.2,1
2442,1
2727.2,1
2818.3,1
2891.6,1
2889.8,1
2796.5,1
2626.1,1
2007.9,1
984.99,1
773.7,1
891.52,1
663.76,1
883.32,1
591.28,1
549.46,1
731.03,1
779.52,1
997.37,1
968.17,1
1492.3,1
1376.2,1
1559.9,1
1940.6,1
2408.9,1
2692.2,1
2404.8,1
1941.6,1
1559.8,1
1051.3,1
1782.2,1
1839.2,1
1373.2,1
1091.7,1
1013.7,1
1313.5,1
1028.9,1
1396.5,1
1041.7,1
829.21,1
602.65,1
636.89,1
712.17,1
234.14,1
179,1
251.89,1
321.97,1
161.15,1
66.411,1
25.263,0
88.699,0
230.13,0
3.1317,0
327.77,0
1076,0
1689.4,0
2355.3,0
2441.4,0
2649.2,0
2830.1,0
2962.1,0
3037.4,0
1853.9,0
1988,0
2569.1,1
1708,1
2492.5,1
2540.1,1
1713.2,1
979.26,1
851.14,1
929.55,1
956.69,1
953.26,1
890.92,1
893.81,1
921.15,1
871.14,1
1015.1,1
1288.5,1
1727.3,1
1614.7,1
871.78,1
634,1
967.2,1
946.63,1
1009.2,1
578.82,1
871.06,1
1115,1
787.67,1
1067.7,1
1718.7,1
1661.5,1
2062.1,1
2419.6,1
1861.1,1
1684.4,1
2186.1,1
2327.4,1
2282,1
1974.5,1
1489.2,1
1466.4,1
1650.3,1
1637,1
1395.1,1
634.89,1
570.55,1
217.66,0
0,0
86.175,0
53.329,0
0,0
98.632,0
51.484,0
157.98,0
77.926,0
194.83,0
57.055,0
143.44,0
188.98,0
308.76,0
376.12,0
515.41,0
420.65,0
153.7,0
149.66,0
250.56,0
222.46,0
364.06,1
555.22,1
561.6,1
795.12,1
661.7,1
783.71,1
959.53,1
958.09,1
1092.1,1
878.74,1
933.32,1
1051.7,1
1571.8,1
1760.8,1
1551.4,1
1805.8,1
2361.2,1
2330,1
2799.9,1
2921.2,1
3702.7,1
3624.2,1
3729.5,1
4711.2,1
3605.3,1
4532,1
5831.8,1
5519.5,1
9150.4,1
8415.6,1
8230.8,1
8601.5,1
8022.6,1
8096.1,1
5180,1
4670.9,1
4886.2,1
3870.7,1
3446.6,1
1726.1,1
1956.5,1
1802,1
919.92,1
1239.4,1
1080.5,1
1536.4,0
1757.7,0
3021.5,0
2163,0
1706.4,0
1765.9,0
1679,0
814.46,0
365.18,0
899.76,0
436.73,0
430.11,0
324.23,0
149.8,0
85.193,0
64.612,0
121.21,0
719.48,1
1459.5,1
1641.9,1
1604.5,1
1414.2,1
1351.4,1
1520.1,1
2124.6,1
2588.2,1
2775.1,1
2772,1
3002.8,1
3151.9,1
3311.8,1
3433.4,1
3556.7,1
3484.7,1
3181.7,1
2849.9,1
2789.5,1
2504.8,1
2318.4,1
2181.4,1
2620.2,1
2734,1
2986.4,1
3191.3,1
3027.7,1
3022.9,1
3275.4,1
4444.7,1
5218.5,1
4246.1,1
3416.8,1
3533,1
3925.8,1
4047.3,1
3632.6,1
2187.8,1
2405.5,1
2123.7,1
2615.5,1
2954.7,1
1410,1
714.24,1
476.98,1
570.63,1
569.9,1
519.66,1
617.71,1
733.16,1
729.7,1
370.6,1
547.73,0
500.6,0
843.75,0
909.03,0
1421,0
2467.7,0
2621.5,0
2175.4,0
927.17,0
809.94,0
831.74,0
899.43,0
611.98,0
648.88,1
791.1,1
1695.3,1
1967.4,1
2220.7,1
1452.4,1
1031.9,1
1344.9,1
1646.9,1
1842.1,1
1553.9,1
2352.4,1
2885.6,1
2914.2,1
3130.6,1
4130.5,1
4741.6,1
4483.9,1
3983.8,1
3088.1,1
2329.7,1
2434.4,1
2856.5,1
3897.7,1
4424.7,1
5625.1,1
5204.5,1
6381.4,1
5373.6,1
4191,1
2820.6,1
3668.1,1
4325.1,1
4455.2,1
3670.1,1
2725.3,1
1884.6,1
1580.7,1
1258.8,1
329.05,1
0,1
0,1
20.32,1
123.56,1
91.761,1
137.07,1
332.75,0
335.59,0
227.66,0
285.12,0
284.84,0
127.66,0
219.71,0
57.41,0
154.03,0
42.725,0
61.563,0
16.963,0
0,0
125.33,1
287.81,1
662.61,1
953.64,1
1292.2,1
1325.5,1
1423.6,1
1209.1,1
1314,1
1577.7,1
1517.1,1
1753.4,1
2195.3,1
2527.3,1
3120.1,1
3524.4,1
3729.3,1
3950.1,1
4044.1,1
3303.3,1
3043.2,1
2596.4,1
2622,1
2547.7,1
3098.6,1
3541.6,1
4045,1
4470.7,1
5154.8,1
4784,1
3728.2,1
3778.7,1
3107,1
3107.3,1
2981.4,1
2951.2,1
3235.6,1
3877.7,1
4673,1
4213.1,1
3525.5,1
2912.9,1
2171.8,1
2362.4,1
1214.8,1
581.69,1
597.27,1
324.5,1
166.01,1
180.29,1
118.55,1
156.94,0
125.22,0
130.56,0
0,0
110.85,0
119.63,0
419.41,0
686.45,0
306.3,0
476.77,0
465.39,0
579.52,0
424.62,0
350.23,0
228.25,0
819.33,1
1515.5,1
2293.3,1
2066.2,1
1763.6,1
1947.3,1
1655.7,1
1896.8,1
2502.2,1
2781.8,1
2656.6,1
3126.6,1
3282.4,1
3686.4,1
3471,1
2525,1
2378.1,1
1920.8,1
1932.4,1
1895.8,1
1940,1
2444.2,1
3004.5,1
2868.1,1
2999.3,1
3168.3,1
2651.3,1
2828.7,1
3891.8,1
4460.2,1
4068.5,1
4217,1
4117.4,1
4899,1
4839.2,1
4786.3,1
4088.1,1
4082.8,1
3388.6,1
2678,1
2052.5,1
1781.6,1
1443.7,1
771.71,1
1142.4,1
796.01,1
472.58,1
505.28,1
546.42,0
173.56,0
289.18,0
708.38,0
655.84,0
690,0
817.47,0
782.23,0
732.98,0
857.37,0
485.02,0
729.73,0
1077.1,0
808.32,0
600.77,0
751.01,0
1144,0
1855.8,1
1996.8,1
1577.1,1
1092.6,1
1731.9,1
1812.5,1
1944.8,1
2918.8,1
3325.8,1
2885.2,1
3121.3,1
3321.3,1
3899.2,1
2670.3,1
3038.3,1
2693.5,1
2545.3,1
1578.6,1
1672.2,1
1414.8,1
1864.5,1
1476.8,1
1812.6,1
3485.8,1
2667.4,1
2641.9,1
2149.9,1
2117.2,1
2878.7,1
4162.2,1
3864.1,1
3787.7,1
3411.5,1
4569.7,1
5229.3,1
5738.5,1
5675.5,1
5963.6,1
6486,1
5132.3,1
5868.8,1
5085.1,1
4520.6,1
1742.2,1
1069.8,1
1555.6,1
1275,1
768.58,1
517.42,1
291.1,1
134.7,1
73.865,1
99.745,1
181.77,1
257.52,0
212.66,0
103.69,0
117.97,0
74.92,0
98.055,0
167.22,0
295.95,0
698.84,0
461.49,0
476.88,0
484.74,0
380.63,0
366.63,0
390.05,1
1093.3,1
1626.7,1
1641.4,1
1736.8,1
2027.3,1
1910.8,1
2191.7,1
2154.9,1
1890.9,1
2041,1
2159.4,1
2414.9,1
2611.8,1
3002.5,1
3603,1
3968.7,1
4573.1,1
4232.5,1
4095.3,1
4549.9,1
4301.5,1
4310.2,1
5184.5,1
5052.1,1
4943.9,1
5065.2,1
6179,1
7112.2,1
6340.1,1
4238.7,1
3974.7,1
3672.1,1
3527.7,1
3532.5,1
3401.4,1
3130.4,1
2065.7,1
1329.6,1
910.95,1
627.87,1
410.32,1
517.65,1
870.5,1
983.7,1
1063.4,1
714.04,1
796.15,0
932.72,0
720.93,0
699.87,0
565.47,0
789.91,0
878.12,0
695.82,0
514.77,0
621.16,0
540.71,0
1032.6,1
1689.7,1
2156.8,1
2717.8,1
2424.3,1
2326.3,1
2078.4,1
2314.4,1
2304.2,1
2259.9,1
1833.3,1
2202.2,1
2121.8,1
2482.3,1
2862.9,1
3174.3,1
3550.5,1
4026.5,1
4296.2,1
5730.4,1
5927,1
4759.6,1
4998.4,1
4745.3,1
5311.7,1
4683.3,1
4967,1
5247.4,1
5899.8,1
5062.1,1
6412.5,1
6921.7,1
5193.6,1
3405.8,1
3252.8,1
2464.1,1
1179.5,1
991.96,1
529.52,1
494.05,1
596.58,1
593.59,1
335.13,1
459.73,0
591.31,0
324.51,0
167.29,0
163.3,0
319.47,1
2913.9,1
2332.7,1
2584,1
3202.2,1
3360.9,1
2192.7,1
2409.6,1
2166.1,1
1948.1,1
2070,1
2549.3,1
2001.2,1
3470.4,1
2031.4,1
1894.3,1
1739.3,1
2005.2,1
2314.7,1
2810.9,1
3039.4,1
2865.4,1
2745.2,1
1938.3,1
1455.3,1
1036.5,1
780.43,1
571.98,1
993.65,1
2368.6,0
1833.9,0
996.25,0
914.21,0
803.13,0
835.51,0
242.92,0
574.44,0
709.91,0
588.73,0
939.71,0
0,0
23.031,0
35.801,0
41.576,0
1.9041,0
30.815,1
160.62,1
255.05,1
270.98,1
367.36,1
443.07,1
677.26,1
644.78,1
625.73,1
722.7,1
670.05,1
636.19,1
598.04,1
587.29,1
509.18,1
589.75,1
537.08,1
499.1,1
518,1
413.2,1
424.06,1
327.01,1
403.06,1
447.84,1
448.6,1
564.36,1
494.24,1
619.25,1
661.16,1
871.41,1
1014.3,1
1017.4,1
994.02,1
1030.7,1
934.64,1
926.04,1
716.19,1
826.63,1
985.55,1
871.88,1
875.9,1
732.44,1
756.7,1
912.31,1
696.09,1
684.29,1
699.59,1
589.99,1
602.88,1
717.14,1
603,1
269.98,1
0,1
21.151,1
0,1
56.474,1
41.164,1
52.379,0
48.691,0
38.963,0
0,0
1.6685,0
22.198,0
24.514,0
13.114,0
12.496,0
12.704,0
44.338,0
54.614,0
29.664,0
6.4889,0
37.344,0
71.321,1
217.68,1
398.11,1
422.83,1
454.02,1
500.59,1
510.57,1
431.67,1
525.17,1
518.02,1
508.5,1
595.07,1
530.42,1
473.61,1
602.55,1
546.96,1
575.21,1
459.93,1
332.17,1
349.21,1
382.82,1
378.74,1
360.95,1
446.83,1
406.94,1
525.76,1
520.67,1
652.74,1
786.68,1
1076,1
1206.9,1
1328.9,1
1047.9,1
1190,1
1471.6,1
1885.2,1
1953,1
1676.6,1
1281.9,1
1371.6,1
1370.3,1
1247.1,1
917.47,1
333.95,1
4.6141,1
1.7863,0
39.259,0
10.665,0
22.56,0
15.247,0
22.255,0
51.172,0
23.727,0
14.592,0
35.972,0
62.042,0
52.171,0
31.261,0
45.647,0
44.863,0
49.821,0
29.212,0
38.124,0
22.434,0
43.345,0
98.513,0
480.43,1
446.83,1
561.28,1
648.34,1
629.73,1
724.84,1
822.65,1
797.6,1
762.92,1
785.24,1
790.14,1
972.34,1
1307.6,1
1451.4,1
1032.3,1
1353.1,1
1525.1,1
1700.5,1
1852.3,1
2087.4,1
2648.1,1
2616.2,1
2694.8,1
3396.2,1
2714.3,1
2088.6,1
1973.7,1
2164.1,1
2413.1,1
2430.8,1
2418.9,1
2676.6,1
4022.9,1
3408.8,1
1679,1
1457.3,1
1530.7,1
882.69,1
340.84,1
0.14694,1
54.969,1
91.34,1
62.252,1
14.94,1
74.694,1
7.6635,0
26.399,0
30.839,0
28.145,0
12.537,0
55.496,0
40.255,0
11.02,0
36.247,0
6.1577,0
21.44,0
9.9678,0
26.145,0
135.11,0
10.232,0
3.3777,0
87,0
670.42,1
1077.9,1
1249.1,1
1309.3,1
1072.2,1
1135.8,1
1357.2,1
1900.1,1
2416.8,1
2567.7,1
2661.8,1
2935.9,1
3086.9,1
3243.8,1
3381.4,1
3304.5,1
3170.4,1
2798.7,1
2311.9,1
2336.4,1
1969.7,1
1954.2,1
1888.5,1
1988.1,1
2123.4,1
2421,1
2520.4,1
2254.2,1
2198.8,1
2351.9,1
3596,1
4421.8,1
3671.8,1
2736,1
3012.4,1
3228.5,1
3236.5,1
2667.9,1
1588.4,1
1619.8,1
1585.2,1
2120.5,1
1950.5,1
776.14,1
310.23,1
5.9859,1
15.75,1
5.8181,1
93.484,1
42.058,1
28.738,1
13.643,1
66.26,1
60.044,0
232.81,0
164.51,0
167.76,0
275.47,0
224.03,0
201.4,0
173.02,0
210.79,0
103.49,0
49.903,0
2.1513,0
15.639,0
9.5097,1
303.85,1
705.71,1
956.1,1
876.58,1
856.11,1
881.83,1
696.87,1
679.29,1
786.52,1
1045.4,1
1017.8,1
1443.6,1
1842.3,1
2569.9,1
3239,1
3668.8,1
3573,1
3003.2,1
1988.3,1
1919.5,1
1655.1,1
2175.2,1
2905.3,1
3368.7,1
4497.8,1
4226.6,1
4970,1
4528.8,1
3301,1
2209.7,1
3073,1
3796.4,1
3770.8,1
3028.7,1
2177.3,1
1620.5,1
1235.7,1
917.97,1
483.45,1
37.164,1
72.735,1
23.895,1
21.264,1
1.0777,1
22.508,1
8.3349,0
7.3137,0
0.080513,0
31.015,0
6.9796,0
1.6679,0
12.845,0
35.859,0
9.958,0
30.224,0
17.704,0
18.197,0
0,0
12.477,1
43.811,1
287.83,1
551.73,1
862.73,1
935.42,1
819.76,1
801.85,1
896.32,1
1009.8,1
1099.6,1
1262.4,1
1598.6,1
2032.9,1
2425.2,1
2928,1
3298.9,1
3620.8,1
3407.1,1
2733.2,1
2248.7,1
1939.4,1
1787.3,1
1803.3,1
2097,1
2479.3,1
2689.9,1
3365.5,1
3860.9,1
3417.3,1
2706.8,1
2559.8,1
2166,1
2235.4,1
2353.5,1
2215.9,1
2370.2,1
2857.6,1
2901.6,1
2227.1,1
1853.5,1
1285.9,1
1205.5,1
1280.6,1
501.64,1
159.45,1
72.871,1
52.603,1
3.0945,1
10.239,1
5.9449,1
30.164,0
4.1943,0
37.572,0
30.53,0
55.022,0
42.036,0
9.2525,0
62.104,0
55.794,0
17.76,0
57.535,0
26.323,0
41.265,0
45.56,0
67.278,0
414.08,1
1043.3,1
1502.5,1
1292.6,1
1016,1
1036.6,1
1051.6,1
1089.7,1
1415,1
1776.9,1
2113.7,1
2428.1,1
2389.9,1
2489,1
2536.3,1
1611.5,1
1371.8,1
1255,1
1158.1,1
1192.7,1
1260.1,1
1717.4,1
1974.8,1
1823.1,1
1888,1
2495.8,1
2013.4,1
2065.1,1
3084.8,1
3587.9,1
3420.4,1
3202.6,1
3426.8,1
3533.2,1
3611.6,1
3517.9,1
3236.4,1
2789.6,1
2217.5,1
1834.3,1
1228.3,1
793.43,1
527.06,1
193.53,1
0,1
36.853,1
44.709,1
40.219,1
38.293,0
67.517,0
12.573,0
34.757,0
24.195,0
17.089,0
13.176,0
24.373,0
152.65,0
91.119,0
36.862,0
19.378,0
59.449,0
1.2808,0
42.667,0
16.833,0
149.27,0
591.76,1
745.13,1
709.37,1
638.18,1
667.31,1
652.35,1
613.65,1
770.97,1
735.72,1
839.92,1
834.05,1
912.09,1
939.37,1
903.5,1
884.52,1
903.04,1
661.5,1
687.08,1
807.91,1
822.79,1
760.2,1
727.24,1
1077.2,1
1393.5,1
1009.3,1
1216.4,1
876.53,1
1365.9,1
1110.9,1
1928.6,1
1656,1
2110.7,1
2159.9,1
3287,1
3409.9,1
4473.7,1
4210,1
4728.1,1
5332.2,1
4078.5,1
4644.7,1
4040.3,1
3525.6,1
904.17,1
700.85,1
709.14,1
708.95,1
437.19,1
112.53,1
26.209,1
29.415,1
8.2436,1
44.534,1
1.9952,1
9.4769,0
42.177,0
60.437,0
0.62443,0
1.2272,0
32.156,0
5.0776,0
4.7515,0
16.848,0
1.8188,0
110.8,0
42.428,0
36.17,0
30.637,0
19.506,1
509.79,1
997.94,1
1103.3,1
1130.7,1
1224,1
1183.4,1
1258.6,1
1182.3,1
1199.9,1
1297.7,1
1427.6,1
1670.8,1
1982.9,1
2159.5,1
2665.5,1
2897.7,1
3124.8,1
2815,1
2614.8,1
2807.9,1
3010.8,1
2990.1,1
3776,1
3741.9,1
3940.7,1
3864.1,1
5102.8,1
5942,1
5272.5,1
3393.3,1
2814.7,1
2814.9,1
2828,1
2723.4,1
1898.7,1
1628.6,1
1464.1,1
652.72,1
200.78,1
36.685,1
71.215,1
20.269,1
172.95,1
101.31,1
52.45,1
10.922,1
9.9093,0
135.13,0
21.352,0
71.633,0
16.911,0
66.567,0
16.492,0
36.847,0
38.641,0
54.223,0
43.522,0
466.14,1
906.94,1
1091.7,1
1167.9,1
1146.2,1
1162,1
1359.2,1
1443.1,1
1373.3,1
1470.2,1
1415.2,1
1477.9,1
1443.3,1
1844.9,1
2213,1
2488.7,1
2704.1,1
3312.5,1
3339.2,1
4646.3,1
4777.5,1
3766.1,1
3738.8,1
3718.6,1
4081.5,1
3557.7,1
3467.1,1
3973.2,1
5026.1,1
4179.5,1
5246.4,1
5544.2,1
3854.9,1
2408.2,1
2018.2,1
1471.5,1
528.8,1
509.63,1
213.06,1
72.944,1
72.622,1
20.308,1
4.4197,1
44.765,0
90.499,0
16.254,0
55.888,0
57.855,0
294.8,1
2342.3,1
1662.3,1
1874.1,1
2072,1
1852.1,1
1553.9,1
1779.4,1
1383.9,1
1172.1,1
1614,1
1756.3,1
1489.1,1
2668.1,1
1478.7,1
1256.1,1
1145.4,1
1320.4,1
1746.8,1
2030.3,1
2215.1,1
2208.4,1
1734.3,1
1338.9,1
1161.7,1
807.27,1
278.84,1
85.284,1
3.1104,1
32.222,0
16.617,0
4.6356,0
63.001,0
14.046,0
17.979,0
22.528,0
0,0
25.035,0
73.587,0
4.9622,0
0,0
16.637,0
33.519,0
0,0
37.067,0
15.025,1
287.61,1
326.39,1
422.53,1
430.16,1
448.89,1
684.02,1
634.13,1
804.46,1
740.86,1
698.41,1
670.35,1
635.66,1
705.24,1
706.75,1
623.26,1
639.07,1
629.51,1
799.96,1
507.23,1
693.89,1
544.89,1
598.38,1
632.26,1
777.29,1
942.86,1
819.94,1
854.99,1
791.16,1
840.58,1
1336.4,1
1220.5,1
1346.3,1
1262.1,1
1103.8,1
817.61,1
1013.9,1
957.47,1
1113.1,1
1081.9,1
896.27,1
876.49,1
1086.9,1
987.99,1
836.43,1
770.47,1
822.53,1
675.6,1
685.68,1
638.78,1
709.42,1
415.3,1
65.372,1
107.02,1
88.656,1
264.13,1
326.7,1
362.18,0
214.53,0
208.86,0
399.45,0
198.24,0
271.74,0
157.88,0
242.12,0
383.51,0
339.14,0
193.93,0
258.44,0
303.46,0
263.7,0
247.43,0
374.86,1
373.97,1
404.03,1
673.78,1
669.34,1
780.16,1
716.93,1
599.34,1
657.16,1
526.37,1
537.52,1
664.36,1
637.41,1
713.3,1
620.14,1
595.68,1
761.48,1
508.95,1
412.09,1
426.35,1
510.37,1
511.21,1
345.62,1
469.68,1
673.21,1
1038,1
848.16,1
1100.7,1
1089.2,1
1319,1
1553.6,1
1650,1
1430.8,1
1460.8,1
1701,1
2047.1,1
2089.3,1
1846.8,1
1457.9,1
1555.5,1
1375.9,1
1249.5,1
1100.5,1
419.31,1
179.76,1
124.16,0
90.683,0
52.977,0
69.28,0
3.2668,0
118.01,0
67.688,0
98.247,0
22.769,0
51.211,0
120.84,0
148.77,0
37.747,0
2.9803,0
57.739,0
49.471,0
23.24,0
23.169,0
111.66,0
227.77,0
222.57,0
418.44,1
656.13,1
687.19,1
756.57,1
853.3,1
850.6,1
893.23,1
1011.2,1
994.3,1
1004.9,1
926.51,1
1123.5,1
1529.4,1
1561.3,1
1205.7,1
1421.8,1
1752,1
1703,1
2004.7,1
2274.5,1
2715.6,1
2665.2,1
2763.1,1
3267.3,1
2767,1
2198,1
2027.3,1
2231.3,1
2512.4,1
2691.8,1
2427.2,1
2809.8,1
3989.1,1
3597.7,1
1693.9,1
1560.5,1
1834.3,1
1067.9,1
488.24,1
323.24,1
708.52,1
518.57,1
548.67,1
228.21,1
405.12,1
561.29,0
207.76,0
135.98,0
199.77,0
218.57,0
220.5,0
169.91,0
169.52,0
203.29,0
191.31,0
615.5,0
573.25,0
262.74,0
224.92,0
281.11,0
102.66,0
72.505,0
575.13,1
1365,1
1518.8,1
1451,1
1264.9,1
1488.1,1
1714.6,1
2229.6,1
2650.7,1
2767.3,1
2888.4,1
3182.5,1
3129.2,1
3232,1
3332,1
3360.8,1
3249,1
2995.3,1
2510.5,1
2728.2,1
2220.6,1
2081.6,1
2007,1
2262.3,1
2381.9,1
2578.9,1
2807,1
2505.6,1
2539.2,1
2642.9,1
3794.4,1
4529.7,1
3736.5,1
2988.7,1
3266.1,1
3374.8,1
3463.3,1
2785.1,1
1935.2,1
1630.5,1
1589.7,1
2232.4,1
1958.7,1
651.29,1
439.21,1
45.462,1
44.509,1
55.843,1
68.259,1
68.259,1
78.401,1
11.603,1
39.329,1
50.093,0
36.179,0
0,0
42.945,0
80.827,0
112.62,0
189.42,0
130.51,0
31.951,0
77.066,0
52.245,0
33.594,0
42.998,0
48.01,1
357.8,1
808.99,1
944.14,1
862.22,1
824.1,1
735.56,1
793.33,1
766.99,1
848.7,1
906.87,1
1128.5,1
1323.2,1
1884.1,1
2535.9,1
3206.9,1
3544,1
3611.6,1
3110.9,1
2089.2,1
1631,1
1794,1
2123.8,1
3000.8,1
3350.9,1
4550.7,1
4334.6,1
4940.3,1
4535.6,1
3339.4,1
2226,1
3136.7,1
3724.9,1
3824.2,1
3042.3,1
2322.8,1
1559.1,1
1445.5,1
1091.2,1
360.2,1
52.461,1
40.779,1
1.4599,1
40.438,1
55.555,1
0,1
8.4131,0
99.718,0
53.262,0
0,0
39.278,0
1.7335,0
33.639,0
39.827,0
55.603,0
109.97,0
38.366,0
49.184,0
40.278,0
43.915,1
5.717,1
322.45,1
610.79,1
937.61,1
1010.3,1
962.63,1
976.84,1
1032.2,1
1064.5,1
1150.6,1
1406.6,1
1774.9,1
2265.3,1
2616.7,1
3255.1,1
3492.5,1
3755,1
3687.9,1
3007.4,1
2496.5,1
1980.3,1
2078.9,1
1749.7,1
2135.3,1
2526.1,1
2882.5,1
3446.7,1
3926.5,1
3639.4,1
2757.3,1
2654.6,1
2231.1,1
2300.6,1
2396.2,1
2333.9,1
2534.4,1
2972.3,1
3065,1
2345.8,1
1856.7,1
1370.4,1
1177.3,1
1516.6,1
620.16,1
337.67,1
50.782,1
60.627,1
54.469,1
140.55,1
140.71,1
274.75,0
80.028,0
126.85,0
177.06,0
118.23,0
99.064,0
130.7,0
154.16,0
140.75,0
68.812,0
92.129,0
167.45,0
203.23,0
172.32,0
81.178,0
581.04,1
1148.7,1
1759.9,1
1432.2,1
1043.2,1
1129.3,1
1014.9,1
1276.7,1
1489.6,1
1850.1,1
2294.2,1
2377.6,1
2400.2,1
2571.4,1
2604.8,1
1681.8,1
1602.6,1
1262.6,1
1271.6,1
1351.3,1
1351.2,1
1756.2,1
2045.4,1
1992.7,1
1982,1
2586.3,1
2175,1
2098.5,1
3075.8,1
3633.9,1
3450.6,1
3316,1
3627.7,1
3552.5,1
3589.9,1
3549.9,1
3394.3,1
2915,1
2317.9,1
1861.5,1
1266.6,1
917.66,1
510.63,1
146.47,1
6.9065,1
43.175,1
25.489,1
27.414,1
72.872,0
139.37,0
38.701,0
137.13,0
43.139,0
68.432,0
115.55,0
65.273,0
30.708,0
64.289,0
83.596,0
50.694,0
2.7971,0
4.353,0
61.413,0
55.035,0
188.32,0
779.11,1
754.75,1
724.46,1
727.43,1
779.27,1
659.55,1
715.06,1
857.94,1
1038.9,1
1081.6,1
999.95,1
997.48,1
876.95,1
987.62,1
860.29,1
832.35,1
913.58,1
895.34,1
865.82,1
923.16,1
817.7,1
892.9,1
1183.8,1
1425.3,1
1055.1,1
1339,1
971.94,1
1244.7,1
1325.1,1
1995.8,1
1842.9,1
2415,1
2127.9,1
3457.9,1
3411.6,1
4491.7,1
4413.3,1
4950.2,1
5508.1,1
3952.6,1
4727.3,1
4184.9,1
3535,1
1041.7,1
860.04,1
828.54,1
788.26,1
614.78,1
259.5,1
254.9,1
145.78,1
91.8,1
180.51,1
346.69,1
176.19,0
168.81,0
186.35,0
146.6,0
147.4,0
163.39,0
184.77,0
152.27,0
170.06,0
181.19,0
199.24,0
235.61,0
218.27,0
200.95,0
236.46,1
661.18,1
1066.2,1
1250.3,1
1129.7,1
1221.9,1
1250.4,1
1300.9,1
1381.9,1
1345.1,1
1426.4,1
1684.5,1
1828.7,1
2090.7,1
2226.9,1
2832.9,1
2986.6,1
3071.6,1
2950.2,1
2666.8,1
2735.5,1
3037.6,1
3247.4,1
3855.9,1
3927.2,1
4079.4,1
4159.8,1
5260.1,1
5831.3,1
5202.1,1
3367.1,1
2808.8,1
2516.2,1
2567.8,1
2526.9,1
1875.6,1
1678.5,1
1323.5,1
837.39,1
194.47,1
107.11,1
95.56,1
123.32,1
125.84,1
200,1
157.96,1
231.22,1
151.65,0
200.8,0
182.82,0
61.129,0
41.525,0
65.732,0
70.86,0
56.473,0
68.701,0
69.016,0
142.94,0
489.43,1
952.53,1
1068,1
1190.3,1
1125.6,1
1316.7,1
1573.9,1
1597.7,1
1373.9,1
1528.3,1
1524.5,1
1558.9,1
1650.3,1
2018,1
2402.7,1
2656.6,1
2821.1,1
3283.7,1
3598.3,1
4764.3,1
4907.7,1
3747,1
3871.7,1
3876.6,1
4049.5,1
3722.2,1
3536.4,1
4058.7,1
5025.4,1
4406.9,1
5274.9,1
5637.1,1
3998.8,1
2667.4,1
2235.2,1
1610.8,1
793.62,1
475.99,1
251.17,1
290.19,1
140.56,1
113.7,1
119.58,1
178.08,0
148.98,0
147.97,0
98.925,0
103.01,0
249.21,1
2405.8,1
1888.7,1
2170.6,1
2208.7,1
1887.2,1
1643.7,1
1997.6,1
1588.3,1
1205.3,1
1722.6,1
1771.6,1
1655.8,1
2757.9,1
1590.3,1
1394.8,1
1143.6,1
1454.7,1
1824.4,1
2233.7,1
2354,1
2384,1
1852.6,1
1345.7,1
1172.9,1
799.44,1
457.89,1
183.81,1
173.73,1
150.31,0
127.3,0
64.082,0
81.069,0
135.44,0
67.762,0
119.48,0
226.25,0
129.89,0
138.16,0
108.73,0
0,0
0,0
11.648,0
0,0
0,0
175.22,0
221.71,0
293.65,0
407.3,0
514,0
1075,0
1303,0
1622,0
1842.4,0
1877.2,0
2203.5,0
2117,0
2255.6,0
2473.2,0
2387.5,0
2191.6,1
1998.9,1
1112.3,1
931.58,1
1337.3,1
1402.6,1
1508.3,1
1788.2,1
1739.8,1
1727,1
1693.6,1
2143.2,1
1911.4,1
2275.5,1
1894.2,1
1587.9,1
2054.4,1
2768.1,1
2967.7,1
2909.1,1
2904.8,1
2210.8,1
1892.5,1
2616.1,1
2482.8,1
2228.8,1
1824.3,1
1600.1,1
1635.2,1
1706.9,1
2035.5,1
1907.3,1
1708.5,1
1984.7,1
1826.1,1
1692,1
1436.6,1
1602.1,1
1490.2,1
1182.3,1
1066.9,1
1113.9,1
846.61,1
1106.4,1
1393.5,1
1021.1,1
1420.7,1
1889.6,1
2879.2,1
2980.1,1
3709.9,1
3434,1
3845.3,1
3970.7,1
3736.9,1
3159.1,1
3050.3,1
3146.5,1
1809.9,1
2543.4,1
2383.7,1
1932.5,1
767.1,1
662.64,1
1003.4,1
566.21,1
620.47,1
500.48,1
418.23,1
519.91,1
598.61,1
557.88,1
1086,1
1215,1
1550.9,1
709.49,1
719.76,1
711.63,1
771.89,1
1187.6,1
858.11,1
901.64,1
903.24,1
456.77,1
799.19,1
867.16,1
956.24,1
937.79,1
774.48,1
753.08,1
425.97,1
362.63,1
153.12,1
197.03,1
251.04,1
0,0
91.753,0
177.08,0
221.67,0
215.55,0
395.25,0
581.31,0
272.62,0
33.65,0
276.87,0
331.04,1
278.09,1
384.19,1
359.31,1
433.76,1
470.39,1
568.28,1
432.3,1
499.92,1
515.67,1
640.25,1
790.51,1
849.12,1
599.81,1
508,1
550.43,1
827.22,1
618.45,1
761.52,1
831.27,1
873.85,1
895.64,1
942.27,1
971.23,1
1006.2,1
1161.5,1
1532.2,1
1497.8,1
1637.3,1
1594.1,1
1673.3,1
1794.6,1
2184.5,1
2189.7,1
1907.2,1
1951.6,1
1947.3,1
1930.6,1
2025.6,1
2138.8,1
1970.3,1
1611.9,1
1253.7,1
3425.1,1
5516.4,1
4054,1
8048.7,1
7641.1,1
7322.8,1
6642.1,1
5628.8,1
5277.4,1
4968.5,1
4768.2,1
4126.3,1
3540.6,1
3860.7,1
2601.6,1
3023.4,1
2557.9,1
1828.7,1
2214,1
2427,1
2678,1
3035,1
4401.8,1
3461.5,1
3365.1,1
3046.3,1
3277,1
2413.5,1
1932.3,1
2562.8,1
2179.2,1
2058.2,1
1975.9,1
1974.9,1
2038.2,1
2083.4,1
2163.1,1
2211.3,1
2097.5,1
2093,1
2150.7,1
2031.4,1
1838.7,1
1707.2,1
1737.1,1
1683.8,1
1726.8,1
1660,1
1645.2,1
1616.6,1
1653.6,1
1739.5,1
1823.7,1
1992.8,1
1980.6,1
2030,1
1963.7,1
1926.9,1
1892.9,1
1905.2,1
2008.5,1
2224.7,1
2229.5,1
2299.3,1
2402.5,1
2329.6,1
2525.5,1
2461.2,1
2493.6,1
2559.5,1
2768.1,1
3088.5,1
3319.6,1
3559.4,1
3515.6,1
3183,1
3115.3,1
2459.3,1
3066.4,1
3551.5,1
3573,1
3155,1
3407.2,1
3314.5,1
2896.9,1
3046.1,1
2923.5,1
2856.7,1
2796.8,1
2566.7,1
2515.6,1
2629.7,1
3169.8,1
2877.7,1
3717.2,1
4198.1,1
4518.3,1
4496.7,1
2983.7,1
2878,1
2883.7,1
2853.1,1
2788.7,1
2725.6,1
2414.9,1
2580.2,1
2759.1,1
3198.6,1
3121.7,1
2170.4,1
2064.4,1
2539.7,1
2329.3,1
1916.8,1
1655,1
2012.5,1
1933.5,1
1278.3,1
1761.1,1
2204.6,1
1694.9,1
1761.2,1
1537.7,1
1247.5,1
1060,1
1070.9,1
996.61,1
953.98,1
1215.6,1
969.37,1
1468.9,1
896.31,1
856.07,1
734.66,1
534.19,1
554.28,1
700.58,1
556.46,1
292.53,1
371.77,1
361.39,1
123.08,1
89.701,1
47.434,1
0,1
42.665,1
154.33,1
91.707,1
157.42,1
401.05,1
388.8,1
234.67,1
305.58,1
295.14,1
142.11,1
231.37,1
53.735,1
135.65,1
30.494,1
63.839,1
221.6,1
533.35,1
1002.9,1
953.56,1
1374.2,1
1383.3,1
1327.5,1
642.74,1
652.95,1
490.46,1
456.14,1
236.35,1
140.49,1
82.479,1
166.46,1
175.39,1
270.19,0
161.28,0
120.97,0
92.913,0
131.07,0
0,0
195.41,0
238.36,0
278.82,0
231.84,0
554.47,0
515.02,0
628.11,0
573.81,0
639.07,0
825.69,0
444.91,0
596.38,0
272.87,0
200.72,0
48.751,0
36.054,0
141.62,0
357.66,0
1339.8,1
1924.2,1
1636.4,1
1518.2,1
1297.6,1
1415.6,1
1263.4,1
1381.7,1
1730.7,1
1810.5,1
1824,1
1758.6,1
1997.7,1
2233.8,1
2324.2,1
1852.6,1
1492.3,1
2018.2,1
1816.7,1
2030.8,1
2303.5,1
2098,1
1889.3,1
1975.7,1
1951.9,1
1899.1,1
2152.4,1
1988.5,1
2189.2,1
1908.5,1
2127,1
2615.3,1
2600.7,1
2869.4,1
2866.3,1
2888.6,1
2710.8,1
2897.6,1
2538.6,1
2680.6,1
2591.5,1
2733.2,1
2661.3,1
2374.2,1
2774.8,1
2541.8,1
2097.3,1
2249.2,1
1763.4,1
1513.4,1
1817.4,1
1494.6,1
1533.5,1
1884,1
2554.3,1
1844.8,1
519.98,1
483.11,1
395.01,1
555.08,1
1428,1
3295.3,1
5232,1
3987.3,1
3340.8,1
3632.8,1
3230.3,1
2980.9,1
2433.8,1
2327.8,1
2123,1
1713.3,1
2025.8,1
1919.9,1
1715.4,1
1739.2,1
1693.1,1
1328.5,1
1468.4,1
1560,1
1534.3,1
1617.7,1
1861.1,1
1768.8,1
1630.1,1
1906.7,1
1688.5,1
1984.9,1
2304.2,1
1861.9,1
1790.6,1
1802.1,1
1570,1
1590.9,1
1880.5,1
2012.5,1
1636.6,1
2264.8,1
2072.8,1
2068.3,1
3304.1,1
2731.8,1
3062.2,1
3100.5,1
3042,1
3912.7,1
3210.9,1
3213.8,1
2627,1
2147.7,1
1913.4,1
1591.1,1
1429.7,1
1785.3,1
1647.4,1
1482.2,1
2463.6,1
2236.8,1
1654.3,1
1033.5,1
995.7,1
1868.5,1
2558.3,1
1838.5,1
1555.6,1
1015.4,1
1238,1
1733.6,1
1141.2,1
805.53,1
689.82,1
620.09,1
412.88,1
519.27,1
365.12,1
312.65,1
422.82,1
252.84,1
405.09,1
211.62,0
107.5,0
296.51,0
185.3,0
54.281,0
0,0
26.97,0
31.172,0
80.371,0
61.61,0
28.208,0
47.419,0
10.256,0
31.03,0
108.22,1
232,1
653.64,1
443.44,1
485.54,1
423.12,1
380.25,1
359.16,1
404.01,1
432.23,1
416.64,1
290.85,1
378.83,1
467.24,1
523.36,1
520.9,1
532.81,1
283,1
397.44,1
322.89,1
174.09,1
137.65,1
245.47,1
465.01,1
635.63,1
1236.1,1
1312.5,1
1070.8,1
1278.6,1
855.62,1
558.95,1
484.49,1
420.68,1
502.47,1
541.43,1
487.58,1
667.67,1
691.64,1
544.41,1
519.79,1
351.57,1
278.27,1
787.92,1
1873,1
1587.4,1
2492.9,1
3502.6,1
3558.9,1
2395.1,1
3570.7,1
3296.1,1
2801.3,1
2491,1
1940.6,1
1383.5,1
867.2,1
1038.5,1
694.28,1
663.64,1
512.77,1
713.34,0
852.2,0
632.74,0
446.9,0
563.03,0
476.52,0
545.26,0
825.3,0
912.78,0
1081.9,0
789.38,0
752.82,0
819.97,0
577.32,0
461.73,0
265.51,0
201.62,0
217.74,0
203.36,0
30.935,0
68.59,0
106.32,0
96.671,0
264.34,0
324.65,0
222.76,0
192.28,0
358.98,0
508.89,1
320.8,1
480.69,1
565.56,1
1086,1
1480,1
2774.8,1
3907.7,1
4207.3,1
4650,1
4334.6,1
4632.1,1
4898.9,1
4925.9,1
5193.7,1
5441.1,1
5043.4,1
5131.3,1
5468.7,1
5427.8,1
5453,1
5352.8,1
5382.4,1
5013.3,1
5015.4,1
5162.4,1
4924.8,1
4659,1
4715.5,1
5083.2,1
5428,1
5996.4,1
5641.1,1
5362.1,1
5462.7,1
5708.2,1
5215.3,1
5195.5,1
5138.1,1
5176.1,1
5641,1
5797.8,1
5390.8,1
5469.9,1
5034.2,1
4711.5,1
4316,1
3940.9,1
3839.7,1
4567.2,1
3464.9,1
3926.1,1
4053.9,1
3228.5,1
3022,1
3007.4,1
2216.8,1
1884.8,1
3625,1
4233.7,1
3795.8,1
3877.8,1
4050.9,1
3266.5,1
2848.1,1
3310.9,1
2940.4,1
3003.5,1
2696.7,1
2385.3,1
2106.6,1
2302,1
2194.6,1
1973.9,1
2249,1
2157.8,1
2122.2,1
2483.9,1
2595.7,1
2614.6,1
2290,1
1977.2,1
2106.3,1
2254,1
1993.8,1
1670.9,1
1817.3,1
1801.8,1
1616.5,1
1908.8,1
1848.3,1
1808.1,1
1829.5,1
1557.3,1
1427.4,1
1974,1
1817.9,1
1643.3,1
2046.1,1
1762.8,1
1319.8,1
1075.6,1
905.09,1
683.32,1
656.41,1
571.53,1
360.56,1
400.47,1
1249.3,1
1321.2,1
1193.1,1
1246,1
1950.1,1
1637.5,1
1944.3,1
2122.9,1
2084,1
2348,1
1937.2,1
2274.9,1
2236.9,1
1607.6,1
1189.4,1
1459.1,1
1456.2,1
1100.3,1
602.26,1
1196.5,1
896.44,1
1323.5,1
941.37,1
789.78,1
560.24,1
568.66,1
251.62,1
355.31,1
402.1,1
524.8,1
520.08,1
525.46,1
394.51,1
399.5,1
290.05,1
296.81,1
57.676,1
126.91,1
115.98,1
0,1
0,1
105.24,1
231.26,1
697.29,1
818.85,1
752.45,1
1075.3,1
633.21,1
859.92,1
1196.1,1
1507.8,1
1993.7,1
1724.7,1
2092.1,1
1131.1,1
1161.1,1
1024,1
1170.9,1
624.63,1
399.51,1
700.67,1
691.46,1
532.15,1
271.33,1
141.53,1
235.26,0
163.32,0
469.44,0
782.57,0
784.31,0
0,0
22.891,0
36.019,0
41.551,0
5.6762,0
0,0
22.585,0
40.23,0
28.247,0
17.014,0
46.188,0
11.768,0
2.8334,0
19.252,0
2.469,0
1.7813,0
40.079,0
37.032,0
1.3133,0
12.868,0
195.2,1
377.55,1
562.77,1
707.7,1
783.81,1
1030.3,1
903.66,1
1225.6,1
1414.1,1
1228,1
1415.1,1
1404.7,1
1235.9,1
1482.2,1
1378.3,1
1084.6,1
1183.2,1
1414.5,1
1304.3,1
1308.1,1
1396.4,1
1319.4,1
1235.9,1
1306.5,1
1353,1
1503.1,1
1239.1,1
1155.7,1
1160.4,1
1196.3,1
1329.6,1
1252.1,1
1505.6,1
1593.5,1
1675.4,1
1357.4,1
1189.5,1
1052.4,1
964.07,1
809.22,1
604.25,1
760.94,1
606.93,1
854.78,1
924.04,1
810.29,1
833.86,1
902.37,1
901.36,1
848.36,1
974.41,1
901.24,1
895.22,1
972.16,1
962.5,1
824.66,1
799.5,1
674.97,1
513.8,1
545.08,1
361.37,1
369.56,1
156.55,1
138.99,1
154.38,1
154.46,1
181.88,1
210.19,1
135.7,1
142.47,1
124.34,1
228.67,1
189.97,1
258.02,1
295.73,1
310.22,1
289.82,1
365.34,1
323.5,1
346.1,1
499.21,1
354.79,1
438.19,1
336.27,1
276.9,1
276.12,1
414.88,1
337.14,1
256.88,1
62.309,1
132.92,1
86.738,1
60.407,1
130.28,1
106.94,1
12.877,0
10.371,0
68.625,0
33.285,0
21.665,0
7.5807,0
34.312,0
0,0
44.864,0
97.344,0
178.22,1
153.77,1
163.01,1
162.58,1
164.35,1
244.53,1
246.33,1
196.63,1
219.4,1
267.08,1
181.59,1
292.34,1
176.19,1
195.07,1
184.84,1
279.48,1
453.73,1
455.5,1
646.81,1
750.19,1
793.38,1
751.93,1
841.48,1
860.64,1
845.96,1
913.15,1
1038,1
1172.3,1
1249.3,1
1241.8,1
1332.4,1
1430.5,1
1359.6,1
1441.6,1
1307.7,1
1297.7,1
1283.7,1
1246.8,1
1132,1
1087.6,1
1145.5,1
890.4,1
849.73,1
788.19,1
751.91,1
671.14,1
543.77,1
578.89,1
586.74,1
570.33,1
628.83,1
578.05,1
692.41,1
733.19,1
684.36,1
670.28,1
847.79,1
825.54,1
925.8,1
959.99,1
928.22,1
919.92,1
897.05,1
1150.9,1
1145,1
1156.3,1
1148.4,1
1248,1
1208.8,1
1247.4,1
1318.7,1
1324.9,1
1359.4,1
1366.7,1
1292.9,1
1310.8,1
1526.2,1
1598.4,1
1550.5,1
1740.9,1
1753.3,1
1697.6,1
1662.4,1
1719.2,1
1586.6,1
1580.7,1
1498.4,1
1486.7,1
1454.6,1
1404.4,1
1393.1,1
1416.1,1
1410.7,1
1392.8,1
1377.1,1
1481.8,1
1559,1
1611.4,1
1521.1,1
1735.5,1
1599.5,1
1643.1,1
1682.4,1
1664.8,1
1725.4,1
1769.8,1
1769,1
1736.6,1
1664.7,1
1628.9,1
1776.1,1
1797,1
2007.2,1
2185.6,1
2458.8,1
2458.3,1
2665.9,1
2491.3,1
2370.1,1
2252.8,1
1944.9,1
2059.6,1
2485.5,1
2598.1,1
2252.6,1
2298.5,1
2100.9,1
1954.8,1
2166.3,1
1973,1
1762.2,1
1949.5,1
1962.1,1
1706.7,1
1982.2,1
1942.5,1
1911,1
2049.5,1
1985.4,1
2119.3,1
2044.1,1
2039.1,1
1799.7,1
1747.5,1
1695.9,1
1708,1
1594,1
1621.6,1
1584.5,1
1784.1,1
1545.6,1
1715.7,1
1574.9,1
1388.9,1
1368.2,1
1256.9,1
1177.8,1
922.41,1
966.1,1
825.04,1
850.62,1
728.62,1
920.66,1
924.84,1
973.3,1
780.65,1
957.55,1
679.85,1
621.68,1
554.72,1
504.38,1
473.5,1
452.39,1
523,1
381.72,1
327.36,1
372.99,1
395.21,1
428.98,1
398.52,1
540.5,1
233.43,1
360.43,1
223.57,1
155.64,1
208.26,1
38.182,1
17.661,1
30.786,1
39.474,1
36.625,1
67.383,1
44.651,1
33.67,1
20.676,1
0,1
43.523,1
39.963,1
35.739,1
13.5,1
5.8321,1
26.704,1
1.3404,1
119.83,1
463.57,1
691.48,1
679.73,1
841.46,1
928.19,1
820.34,1
575.5,1
391.49,1
302.84,1
253.32,1
111.9,1
44.53,1
18.775,1
0,1
9.0238,1
9.327,0
11.641,0
4.268,0
7.6265,0
30.645,0
11.173,0
46.502,0
73.081,0
36.057,0
33.168,0
35.645,0
27.338,0
26.198,0
1.1491,0
2.6,0
41.126,0
66.184,0
44.219,0
37.154,0
53.321,0
2.763,0
21.543,0
12.202,0
57.467,0
78.245,1
117.6,1
229.43,1
158.87,1
273.73,1
354.5,1
584.61,1
693.64,1
1007.3,1
1255,1
1357,1
1292.8,1
1551,1
1744,1
1772.4,1
1330.3,1
1161.3,1
1587.5,1
1412.8,1
1314,1
1242,1
1356.8,1
1171.1,1
1165.6,1
1082.1,1
1178.4,1
1388.1,1
1371.1,1
1352.5,1
1189.2,1
1378.5,1
1818.3,1
1801.3,1
1911.4,1
1929.4,1
1951,1
1714.4,1
1844.7,1
1784.3,1
1905.8,1
1727.9,1
1641.3,1
1672.6,1
1542.5,1
1897.9,1
1834.5,1
1379.1,1
1625.2,1
1203.3,1
958.92,1
1084.9,1
808.31,1
799.28,1
1373.2,1
1996.6,1
1203.6,1
365.23,1
60.486,1
41.479,1
104.88,1
967.47,1
1800.9,1
2823.7,1
2590.9,1
2283.9,1
2479.5,1
2291.6,1
2098,1
1630.4,1
1388,1
1352.1,1
1037.6,1
980.56,1
981.09,1
978,1
983.58,1
1109.5,1
1047.9,1
974.74,1
859.81,1
874.24,1
934.06,1
987.4,1
902.08,1
979.92,1
1006.3,1
1067.4,1
1047.3,1
1042.9,1
991.32,1
946.74,1
917.33,1
798.56,1
682.98,1
933.1,1
1100.3,1
1173.6,1
920.16,1
922.19,1
869.42,1
922.74,1
826.36,1
800.42,1
683.85,1
727.47,1
889.94,1
884.25,1
1011.7,1
1006.2,1
826.93,1
823.84,1
732.18,1
670.95,1
822.46,1
792.22,1
791.86,1
721.91,1
617.38,1
264.62,1
162.34,1
437.71,1
226.51,1
311.08,1
197.51,1
111.79,1
143.95,1
137.91,1
164.84,1
158.76,1
213.06,1
201.68,1
96.498,1
61.6,1
22.653,1
64.593,1
47.897,1
13.365,1
15.738,1
4.6257,1
34.298,0
47.111,0
16.492,0
11.69,0
30.582,0
6.8495,0
28.506,0
26.261,0
38.658,0
38.597,0
85.139,0
17.188,0
10.601,0
27.884,0
18.557,1
33.67,1
54.331,1
45.818,1
155.18,1
93.402,1
27.702,1
97.846,1
25.383,1
72.461,1
113.39,1
76.294,1
57.866,1
131.82,1
73.504,1
57.504,1
44.598,1
6.5431,1
49.9,1
20.396,1
56.767,1
64.25,1
8.7825,1
33.947,1
30.921,1
37.747,1
35.948,1
124.37,1
104.85,1
130.59,1
2.845,1
5.2451,1
10.382,1
2.5127,1
29.428,1
17.013,1
255.17,1
155.19,1
194.54,1
166.63,1
382.38,1
253.03,1
427.97,1
187.82,1
699.63,1
1925,1
2409.2,1
2449.2,1
1766.2,1
2797.6,1
2473.3,1
1897.9,1
1606.1,1
908.91,1
497.46,1
236.11,1
189.3,1
41.316,1
67.938,1
7.4576,1
59.558,0
7.7377,0
38.607,0
44.008,0
47.517,0
50.009,0
22.657,0
32.81,0
36.965,0
11.368,0
0,0
22.125,0
26.429,0
12.986,0
43.043,0
6.0972,0
38.926,0
39.017,0
34.291,0
31.835,0
81.445,0
14.502,0
3.3793,0
12.995,0
37.424,0
27.76,0
112.5,0
28.788,0
0.64547,1
150.23,1
105.35,1
146.05,1
495.16,1
1130.9,1
2185.8,1
3128.9,1
3718.4,1
3808.4,1
3613.5,1
3624.4,1
4097.1,1
3935.6,1
4614.5,1
5060.3,1
4407.2,1
4334.3,1
4600.6,1
4609.8,1
4975.6,1
4568.4,1
4482.3,1
4460.6,1
4486.1,1
4863.1,1
4867.1,1
4477.9,1
4315.6,1
4549.3,1
4932.8,1
5034.5,1
5244.7,1
5063.8,1
5429.3,1
5529.9,1
5227,1
4852.7,1
4866.8,1
4462.4,1
5119.4,1
5226.8,1
4701.7,1
4820.9,1
4399.1,1
3945.5,1
3596.9,1
3362.7,1
2845.4,1
3626.7,1
2769.5,1
2968.8,1
3032.5,1
2224.7,1
1809.8,1
510.03,1
275.75,1
776.87,1
2003.1,1
2717.2,1
2362.8,1
3085.6,1
3050.8,1
2425.6,1
2038.2,1
2027.4,1
2054.7,1
1821.1,1
1534.8,1
1611.9,1
1581,1
1520.6,1
1458,1
1403.5,1
1321.4,1
1211.3,1
1165.8,1
1347.6,1
1629.9,1
1806.2,1
1460.6,1
1381.4,1
1512.7,1
1518.9,1
1453.3,1
1432.5,1
1296.9,1
1294.5,1
1338.2,1
1225.4,1
1255.7,1
1376.6,1
1442,1
1113.2,1
984.63,1
1009,1
1054.2,1
934.25,1
887.13,1
632.06,1
400.6,1
238.42,1
331.1,1
204.82,1
211.16,1
133.63,1
16.017,1
102.25,1
169.15,1
90.43,1
218.46,1
154.3,1
88.316,1
79.921,1
147.96,1
63.159,1
147.66,1
117.4,1
42.56,1
92.497,1
121.07,1
64.918,1
115.35,1
96.019,1
144.25,1
147.84,1
119.73,1
135.13,1
60.009,1
62.617,1
79.767,1
88.158,1
88.796,1
66.786,1
114.94,1
124.45,1
164.17,1
75.036,1
167.89,1
99.239,1
88.403,1
28.527,1
46.536,1
18.702,1
61.937,1
56.818,1
14.362,1
31.347,1
17.976,1
16.02,1
41.296,1
7.7199,1
0,1
66.797,1
23.186,1
1.0155,1
20.715,1
145.18,1
710.19,1
1038.6,1
1005.1,1
1077,1
668.57,1
688.5,1
545.78,1
446.77,1
300.4,1
222.59,1
109.71,1
209.84,1
38.071,1
33.152,1
5.1402,1
13.317,0
32.12,0
12.841,0
64.315,0
30.606,0
0,0
17.043,0
35.991,0
0,0
38.703,0
11.626,0
49.866,0
53.673,0
116.25,0
11.048,0
33.316,0
73.279,0
60.087,0
137.48,0
35.434,0
154.87,0
133.41,0
119.17,0
206.88,0
246.81,0
238.34,1
565.3,1
832.89,1
997.95,1
1055.2,1
1258.5,1
1183.5,1
1544.4,1
1666,1
1516,1
1658.3,1
1723.5,1
1589.9,1
1738,1
1577.7,1
1279.5,1
1496.8,1
1752.1,1
1594.6,1
1391.9,1
1512.2,1
1831.1,1
1435.3,1
1397.1,1
1742.1,1
1732.7,1
1362.6,1
1467.3,1
1376.7,1
1442.3,1
1536,1
1394.9,1
1602.8,1
1828.3,1
1741,1
1430.9,1
1199.1,1
1128.1,1
1026.9,1
882.58,1
1009.2,1
1207.6,1
1046.7,1
1097.7,1
1144.6,1
1317.1,1
957.13,1
1239,1
1018,1
1091.3,1
1308.3,1
1302.1,1
1079,1
1262.7,1
1202.9,1
1079.5,1
1007.2,1
983.68,1
602.08,1
709.84,1
786.26,1
598.37,1
486.17,1
366.02,1
434.87,1
306.73,1
375.94,1
333.22,1
223.1,1
203.18,1
234.54,1
299.9,1
324.92,1
415.81,1
402.74,1
423.79,1
383.02,1
511.51,1
506.94,1
354.68,1
702.24,1
659.23,1
1031.2,1
590.88,1
927.07,1
676.16,1
627.36,1
528.87,1
580.29,1
374.18,1
489.25,1
305.07,1
361.56,1
301.89,1
173.01,1
205.02,0
247.32,0
66.982,0
136.52,0
142.8,0
137.46,0
138.58,0
147.82,0
108.72,0
165.7,0
315.72,1
174.32,1
344.5,1
316.47,1
291.94,1
265.01,1
291.55,1
475.45,1
440.88,1
329.59,1
212.3,1
317.89,1
343.76,1
264.01,1
281.83,1
319.89,1
729.44,1
632.26,1
674.44,1
855.71,1
992.52,1
972.83,1
1038.7,1
1101.5,1
980.27,1
1020,1
1351.9,1
1426.8,1
1491.6,1
1530.1,1
1557.9,1
1592.5,1
1550.7,1
1579.1,1
1553.2,1
1403.6,1
1413.9,1
1515,1
1309.9,1
1221.2,1
1285.8,1
993.02,1
877.06,1
873.11,1
862.3,1
737.87,1
684.78,1
900.03,1
741.63,1
702.38,1
629.27,1
759.42,1
820.54,1
933.11,1
873.56,1
932.23,1
1061.4,1
1159.8,1
1621.2,1
1340.6,1
1432.4,1
1068.2,1
1360.5,1
1748.9,1
1411.1,1
1340.3,1
1449.8,1
1490.9,1
1543.6,1
1478.3,1
1501.3,1
1631.1,1
1640,1
1945.7,1
1976.7,1
1620.9,1
1733.8,1
1915.7,1
1770.2,1
1793.5,1
1753.1,1
2033.3,1
1979.7,1
1892.7,1
1764.7,1
1909.5,1
1962.3,1
1856.9,1
1757.3,1
1574.8,1
1833.5,1
1730.1,1
1541.4,1
1450.5,1
1504.6,1
1503,1
1699,1
1783.5,1
1801.1,1
2123.1,1
1882.5,1
1755,1
1794,1
2021.2,1
2133.9,1
2037.1,1
2129.5,1
2044.5,1
2107.6,1
2001.9,1
2028.7,1
2022.5,1
2209.5,1
2343.1,1
2746.9,1
2702.7,1
2882,1
2798.7,1
2626.3,1
2335.4,1
2025.4,1
2214,1
2535.6,1
2473.8,1
2367.1,1
2387.6,1
2147.6,1
2098.2,1
2135.2,1
1974,1
1872.4,1
1947,1
1861,1
1747,1
1796.3,1
1776.4,1
1748.3,1
1773.7,1
1909.3,1
2139.3,1
2006.3,1
1788.4,1
1790.8,1
1691.8,1
1700.6,1
1662.5,1
1604.8,1
1770.3,1
1803.4,1
1794.1,1
1530.8,1
1813.5,1
1405.3,1
1344.1,1
1490.6,1
1202.2,1
1042.1,1
918.15,1
973.01,1
818.49,1
795.29,1
645.32,1
813.1,1
908.57,1
927.15,1
830.4,1
675.04,1
732.63,1
554.37,1
613.66,1
526.69,1
396.31,1
417.92,1
348.17,1
411,1
295.95,1
328.11,1
296.31,1
340.23,1
455.28,1
484.09,1
297.78,1
286.87,1
331.9,1
250.1,1
55.769,1
2.1305,1
32.253,1
0,1
53.079,1
47.795,1
0,1
53.614,1
129.48,1
71.287,1
0,1
0,1
31.252,1
89.876,1
38.972,1
73.729,1
127.45,1
49.368,1
156,1
586.26,1
797.01,1
728.09,1
964.24,1
1016.8,1
883.84,1
583.27,1
538.75,1
363.23,1
451.48,1
126.31,1
91.409,1
140.24,1
101.21,1
277.08,1
245.96,0
310.79,0
318.39,0
330.06,0
306.89,0
285.96,0
218.54,0
118.37,0
325.2,0
117.39,0
75.776,0
61.895,0
117.14,0
28.527,0
83.93,0
128.53,0
48.946,0
50.144,0
56.727,0
110.69,0
108.34,0
99.02,0
118.6,0
178.22,0
266.19,1
311.26,1
329.72,1
298.33,1
388.3,1
683.98,1
757.96,1
887.34,1
1017.3,1
1298.9,1
1444.1,1
1480.4,1
1748,1
2057,1
1907.7,1
1529.2,1
1425.9,1
1720,1
1502.3,1
1499.6,1
1514.6,1
1618.7,1
1283.5,1
1371.3,1
1340.8,1
1470.3,1
1666.2,1
1554.6,1
1537.1,1
1296.7,1
1635.9,1
1987,1
1918.2,1
2026,1
1961.6,1
2102.3,1
1825.8,1
2039.9,1
2012,1
2032.4,1
1799.5,1
1724.1,1
1805.4,1
1672,1
2101.7,1
1900.9,1
1607.6,1
1777.6,1
1361.9,1
1142.1,1
1167.3,1
952.53,1
934.6,1
1514.1,1
2146,1
1330,1
394.22,1
159.23,1
122.54,1
174.36,1
1183.4,1
1943.1,1
3057.1,1
2770.9,1
2435.1,1
2671.1,1
2373.1,1
2301.6,1
1794.6,1
1542.3,1
1329.2,1
1051.1,1
943.78,1
1039.4,1
1078.1,1
1133.6,1
1176.2,1
1141,1
971.92,1
1097.7,1
918.38,1
975.28,1
1077.2,1
1019.7,1
860.54,1
1052,1
1156.6,1
1124.2,1
1086.6,1
999.16,1
1052.8,1
1017.1,1
896.33,1
870.37,1
1016.5,1
1133.6,1
1172.1,1
1071.3,1
989.87,1
989.6,1
1025.7,1
1020.9,1
1028.3,1
828.34,1
811.19,1
862.67,1
1024.3,1
983.63,1
986.21,1
1071.2,1
1027.5,1
725.13,1
810.48,1
829.55,1
946.68,1
872.84,1
804.61,1
668.05,1
252.33,1
264.22,1
477.55,1
421.38,1
384.12,1
390.98,1
377.55,1
164.62,1
261.02,1
377.52,1
307.09,1
284.53,1
431.16,1
299.68,1
171.09,1
81.154,1
140.74,1
158.18,1
180.94,1
217.28,1
97.138,1
95.483,0
191.6,0
216.88,0
273.08,0
154.33,0
115.65,0
192.32,0
311.41,0
150.79,0
170.76,0
224.35,0
177.05,0
172.17,0
182.5,0
202.22,1
153.38,1
206.53,1
254.19,1
271.71,1
263.2,1
289.18,1
281.08,1
193.04,1
195.53,1
190.83,1
187.33,1
191.44,1
215.65,1
133.72,1
149.72,1
167.07,1
197.28,1
131.85,1
221.41,1
193.65,1
157.11,1
133.12,1
110.53,1
145.08,1
235.98,1
220.24,1
222.26,1
131.46,1
168.4,1
335.47,1
93.403,1
188.2,1
193.82,1
317.79,1
156.89,1
188.09,1
102.46,1
134.31,1
124.43,1
41.472,1
55.425,1
92.178,1
120.03,1
607.94,1
1776.6,1
2623.3,1
2487.4,1
1954.4,1
2867.4,1
2677.3,1
1825.6,1
1355.3,1
1050,1
590.96,1
263.03,1
266.8,1
194.54,1
57.601,1
36.535,1
59.061,0
57.045,0
37.37,0
58.087,0
53.334,0
131.08,0
36.047,0
12.996,0
10.161,0
47.994,0
55.211,0
185.86,0
124.46,0
109.44,0
0,0
47.722,0
49.846,0
63.755,0
127.98,0
151.92,0
234.92,0
113.83,0
79.346,0
125.01,0
179.47,0
117.88,0
273,0
50.015,0
169.9,1
312.09,1
256.94,1
274.66,1
660.39,1
1223.2,1
2307.7,1
3440.1,1
3891.6,1
4087,1
3833.7,1
3897.2,1
4452,1
4097.8,1
4997.4,1
5205.1,1
4568.8,1
4668.4,1
4825.2,1
4873.5,1
5222.8,1
4814.1,1
4602.7,1
4646.4,1
4711.7,1
5149.2,1
4876,1
4543.7,1
4537.5,1
4892,1
5153.6,1
5213.3,1
5534,1
5349.1,1
5589,1
5868.8,1
5398.2,1
5036.5,1
5173.7,1
4570,1
5361.5,1
5469.3,1
4872.7,1
5094.5,1
4561.1,1
4182.1,1
3708.5,1
3580.7,1
2948.9,1
3702.4,1
2940.4,1
3028.9,1
3143.3,1
2304.4,1
1945.5,1
695.59,1
422.3,1
891.11,1
2116.6,1
2840.2,1
2371.7,1
3238.3,1
3267,1
2675.8,1
2079.3,1
2200.9,1
2093.4,1
2031.9,1
1752.9,1
1781.2,1
1736.1,1
1831.7,1
1703,1
1430.5,1
1418.6,1
1304.9,1
1308.1,1
1516.4,1
1701.4,1
1770.1,1
1571.8,1
1562.2,1
1573.9,1
1716.3,1
1457.1,1
1540.7,1
1423.9,1
1492.1,1
1364.9,1
1446.1,1
1482.2,1
1572.8,1
1463.9,1
1267.5,1
988.88,1
1201.7,1
1199.9,1
1009,1
1035.8,1
874.64,1
501.61,1
354.46,1
385.97,1
390.48,1
287.79,1
219.93,1
121.84,1
158.66,1
357.19,1
297.58,1
308.26,1
218.88,1
111.82,1
85.407,1
43.169,1
222.05,1
255.65,1
258.26,1
181.82,1
163.75,1
129.94,1
150.73,1
234.52,1
214.48,1
115.96,1
169.89,1
223.11,1
203.42,1
184.95,1
141.49,1
217.43,1
141.44,1
237.63,1
251.64,1
172.64,1
173.76,1
188.31,1
229.99,1
309.65,1
366.62,1
316.41,1
173.36,1
104.2,1
143.87,1
39.364,1
111.16,1
49.406,1
93.541,1
111.67,1
42.073,1
184.09,1
112.34,1
59.238,1
55.294,1
135.2,1
36.096,1
63.554,1
238.01,1
826.58,1
1056.6,1
1298.2,1
1099.5,1
701.33,1
708.93,1
656.51,1
440.73,1
447.56,1
254.9,1
290.34,1
131.75,1
303.13,1
136.26,1
132.58,1
130.96,0
187.74,0
171.4,0
117.64,0
172.67,0
0,0
0,0
20.827,0
0,0
0,1
282.27,1
820.09,1
1036.7,1
1256.6,1
1159.3,1
1496.3,1
1697.4,1
1838.7,1
2690.1,1
2597.3,1
2715,1
2965.8,1
2862.8,1
3635.4,1
3317.2,1
2589.2,1
1995.1,1
914.59,1
534.59,1
924.27,1
1435.4,1
1808,1
2444.9,1
3291.7,1
3443.3,1
4087.6,1
3910.9,1
4694,1
3580.1,1
3762.6,1
2998.9,1
3495.7,1
3722.8,1
3700.6,1
3791.6,1
3155.1,1
2868.8,1
2866.8,1
3177.5,1
3211.8,1
2166.4,1
2560.4,1
2784.2,1
2428.9,1
2611.2,1
3292.4,1
2215.7,1
2003.4,1
2189.4,1
2239.6,1
2395.4,1
3037.4,1
2602.8,1
2996.9,1
3240.1,1
1736.2,1
1834.5,1
1763.3,1
1004,1
968.28,1
634,1
655.23,1
1327.3,1
1653.8,1
2412.2,0
2465.6,0
2645.5,0
2868.7,0
2908.6,0
3027.6,0
1827.3,0
1957.9,0
2414.4,0
1401.3,0
1879.9,0
1934.2,0
1489.9,0
710.89,0
553.28,1
960.8,1
679.78,1
796.35,1
1237.5,1
1287.2,1
1254.4,1
1604.5,1
1265,1
1525.3,1
1940.2,1
2605.4,1
3394.7,1
3702.7,1
4119.1,1
4967.2,1
6114.9,1
6144.2,1
6762.6,1
6198.4,1
6182.5,1
6913,1
6193.5,1
5751.4,1
6112.1,1
6511.1,1
6677.5,1
5659.3,1
6384.7,1
6429.7,1
6546.1,1
6226.7,1
5569.5,1
5928.1,1
5429.6,1
5172.6,1
5679.2,1
5332.8,1
5503.3,1
5194.3,1
4765.8,1
4956.9,1
4940.9,1
4303.3,1
4304.5,1
3178.9,1
3086.8,1
3972.7,1
4011.5,1
3458.2,1
3691.1,1
4183.2,1
3433.1,1
3000,1
3132,1
3007.9,1
2292.4,1
2206.9,1
2082.8,1
1713.8,1
1049.3,1
876.11,1
1107.9,1
786.81,1
742.51,1
750.38,1
823.03,1
496.84,1
703.93,1
734.4,1
543.96,1
507.35,1
656.58,1
845.22,1
849.69,1
957.68,1
686.97,1
714.92,1
950.68,1
985.33,1
1497.8,1
1559.1,1
1305.2,1
1045.8,1
963.44,1
3128.6,1
5014.6,1
3847.8,1
7935.4,1
7373.7,1
7030.6,1
6607.7,1
5441.8,1
5429.7,1
4276.3,1
4003.3,1
3802.6,1
3173.3,1
3400.5,1
2040,1
2256.6,1
2174.3,1
1351.7,1
1793.6,1
1620,1
1860.3,1
2224,1
3800.3,1
2760.7,1
2201.1,1
2575.5,1
2264.8,1
1490.1,1
864.74,1
1186.6,1
666.81,1
739.49,1
729.32,1
551.17,1
448.69,1
404.83,1
506.66,1
322.09,1
392.42,1
258.69,1
270.02,1
273.74,1
93.246,1
256.84,1
429.43,1
349.89,1
493.75,1
475.55,1
448.72,1
354.9,1
310.11,1
370.34,1
476.23,1
495.6,1
397.72,1
540.32,1
665.33,1
614.22,1
673.43,1
673.35,1
722.01,1
751.74,1
635.39,1
857.43,1
1239,1
1209.3,1
1073.5,1
1449.7,1
1327.3,1
1356.5,1
1241.3,1
1369,1
1317.2,1
1422.2,1
1694.9,1
1732.7,1
1411.2,1
1404.2,1
1890.4,1
2286.7,1
2087.7,1
1624.3,1
1727,1
1819.7,1
2024.6,1
1815.8,1
1612.3,1
1604.1,1
1786.9,1
1190.1,1
1702.9,1
1462.7,1
2191.4,1
2331.5,1
2653.6,1
3400.6,1
3222.5,1
2778.6,1
1268.6,1
940.4,1
896.03,1
869.28,1
705.8,1
567.41,1
267.57,1
592.71,1
611.95,1
991.53,1
704.74,0
298.79,0
372.75,0
587.1,0
683.56,0
413.56,0
843.04,0
1042.8,0
727.01,0
359.27,0
832.64,0
822.98,0
374.66,0
360.53,0
239.39,0
95.854,0
0,0
112.22,0
215.87,0
409.3,0
521.21,1
345.93,1
881.1,1
882.82,1
1149.3,1
915.05,1
824.2,1
976.61,1
1323.8,1
1335.4,1
1632.7,1
2209.8,1
2602,1
3263.7,1
3815.5,1
3735.9,1
3785.9,1
3396.5,1
3186.8,1
3593.1,1
3068.1,1
3474.8,1
2979.7,1
2834.3,1
2663.6,1
2266.9,1
2029.4,1
1743.1,1
1762.4,1
1594.1,1
1323.4,1
1141.6,1
1233.4,1
1111.5,1
2403.7,1
2094.9,1
2168.3,1
2350.2,1
2176.3,1
2077.6,1
2072.7,1
2041.8,1
1977,1
1896,1
1581.4,1
1462.8,1
1575.6,1
1682.6,1
2215.9,1
2046.2,1
1739.2,1
1735.6,1
2141.1,1
1965,1
2382.1,1
2549.4,1
2143,1
2310.5,1
2626.8,1
1872.7,1
2574.4,1
2253.7,1
1795.8,1
2060,1
1871.7,1
1971.6,1
625.46,1
770.46,1
809.68,1
599.97,1
916,1
711.75,1
1450.5,1
2029.7,1
1985.6,1
1704.8,1
1400.3,1
1121.8,1
731.82,1
744.45,1
625.01,1
277.18,1
110.6,1
0,1
0,1
0,1
0,1
21.243,1
0,0
103.16,0
113.23,0
376.5,0
644.93,0
280.82,0
437.04,0
421.15,0
545.58,0
387.93,0
317.95,0
194.59,0
440.55,0
387.95,0
517.63,0
491.18,1
624.87,1
842.25,1
742.61,1
701.34,1
794.82,1
973.98,1
538.82,1
462.99,1
461.12,1
739.9,1
979.14,1
848.55,1
997.14,1
678.33,1
1050.6,1
1012.5,1
979.45,1
861.38,1
1230.5,1
951.41,1
618.38,1
563.34,1
550.28,1
880.08,1
851.93,1
1243.1,1
1199.2,1
1109.4,1
1128.1,1
1758.3,1
3310.8,1
1929.9,1
1662.9,1
1510.7,1
1039.3,1
1131.1,1
1094.4,1
1333.6,1
1082.7,1
987.57,1
1226.1,1
705.88,1
490.93,1
522.06,1
449.41,1
144.72,1
305.05,1
674,1
620.08,1
640.35,0
771.06,0
737.06,0
688.61,0
802.9,0
446.18,0
677.6,0
993.67,1
855.95,1
653.37,1
1047.9,1
1142.8,1
1036.8,1
1215,1
954.54,1
512.46,1
1278.3,1
1455.1,1
1237,1
2309,1
2289.8,1
2220.6,1
2547.3,1
2627.6,1
3341.4,1
3262.5,1
2583.3,1
2094.2,1
1932.7,1
1506.6,1
1345.8,1
1380,1
1649.2,1
1795.6,1
1224.5,1
2250.6,1
1893.2,1
1775.2,1
1221.6,1
779.09,1
1877.7,1
2343.1,1
1926.2,1
1350.3,1
998.43,1
1173,1
1575.4,1
943.23,1
771.87,0
586.75,0
615.39,0
391.36,0
472.14,0
437.39,0
334.27,0
432.31,0
309.64,1
566.08,1
616.41,1
616.37,1
1446.5,1
1679.7,1
1806.9,1
1529.6,1
972.23,1
869.53,1
1105.5,1
1149,1
859.88,1
1091.6,1
1051.8,1
997.7,1
1109.7,1
1332.8,1
2022.6,1
2004.1,1
2782.5,1
2857.2,1
1779.2,1
1631.8,1
1358.7,1
1430.6,1
1504.1,1
1249.3,1
1049.8,1
1283.4,1
1272.8,1
1338.4,1
1248.1,1
870.85,1
802.75,1
847.12,1
923.94,1
751.33,1
877.28,1
1007.2,1
1205.8,1
1634.4,1
1745.7,1
1555,1
1588.9,1
1263.8,1
982.37,1
975.87,1
742.16,1
817.3,1
923.41,1
712.24,1
907.06,1
1037.1,1
919.99,1
782.87,1
745.05,1
763.56,1
1222.1,1
1999.5,1
1384.9,1
1039.8,1
970.86,1
984.73,1
914.36,1
580.1,1
795.28,1
1187.9,1
1304.9,1
1398.7,1
1097.1,1
1271,1
1225.8,1
973.72,1
961.31,1
896.62,1
1222.5,1
1361.6,1
1129.2,1
867.25,1
1026.3,1
1026.6,1
1052.6,1
1271.9,1
1294,1
1476,1
1201,1
1213.3,1
1205.7,1
997.02,1
1068.8,1
629.23,1
566.86,1
710.61,1
900.88,1
705.6,1
572.84,1
730.21,1
640.31,1
1103.6,1
1027.8,1
1043.9,1
902.59,1
1155.5,1
1160,1
710.9,1
1158.3,1
1153.6,1
1573.3,1
1611,1
1516.3,1
1512.4,1
1361.2,1
1280.1,1
1350.4,1
1657.1,1
2084.8,1
2204.7,1
1510.9,1
2043.5,1
1898.3,1
1811.3,1
2578.2,1
2246,1
2347.1,1
1874.9,1
2564.5,1
2041.8,1
1755.5,1
1589.9,1
1191.3,1
1393.2,1
2122.7,1
1316.6,1
1433.4,1
2546.1,1
1751.9,1
1631.6,1
1670.3,1
1784,1
1339.4,1
1428,1
1294.7,1
1094.7,1
1473.3,1
1268.3,1
1196.2,1
1177.7,1
1220.6,1
965.47,1
916.58,1
1246.3,1
1521.5,1
1439.7,1
2693.1,1
3360.9,1
3390.6,1
2705.7,1
3092.2,1
3943,1
3477.1,1
2769.5,1
2662.7,1
2062.4,1
1174.7,1
364.52,1
731.81,1
662.68,1
602.01,1
907.76,1
655.01,1
627.02,1
573.62,0
498.39,0
102.93,0
255.56,0
243.23,0
283.48,0
417.86,0
434.95,0
402.06,0
527.64,0
185.65,0
0,0
0,0
13.133,0
24.212,0
29.902,0
30.846,1
151.43,1
681.23,1
768.4,1
882.59,1
662.08,1
392.78,1
678.98,1
427.28,1
970.42,1
1052.8,1
1000.7,1
1076.4,1
1015.5,1
1794,1
1253.9,1
1038.2,1
662.37,1
567.2,1
588.43,1
729.55,1
1345.7,1
1565.4,1
2337.8,1
3051.6,1
3360.2,1
4221.2,1
3790.8,1
4505.1,1
3110.2,1
3591.8,1
2811.8,1
2965.4,1
2870.9,1
2632.5,1
2716.7,1
2515.1,1
2244.2,1
2691.7,1
2933.5,1
2816.3,1
2032.1,1
2312.6,1
2633.3,1
2413.6,1
2347.1,1
2844.7,1
1927.7,1
2061.2,1
2304.1,1
2652.7,1
2545.3,1
3056.1,1
2496.7,1
2788.7,1
3041.1,1
1539.9,1
1824.6,1
1878.8,1
1097.4,1
814.38,1
694.2,1
462.47,1
556.22,1
221.79,1
132.94,0
171.97,0
127.03,0
10.661,0
156.76,0
108.33,0
59.593,0
9.2585,0
41.834,0
49.54,0
34.559,0
0,0
21.616,0
13.653,0
47.787,1
288.82,1
369.29,1
525.92,1
1088.6,1
1268.4,1
1023.9,1
1194,1
968.56,1
936.41,1
938.86,1
1629.7,1
2825.5,1
3421.2,1
3867.3,1
4563.8,1
5656.6,1
5982.3,1
6370.1,1
6064.4,1
6194.8,1
6649.5,1
5822.9,1
5487.4,1
5818.5,1
6190.1,1
6208.9,1
5782.9,1
6222.6,1
6566.7,1
6539.9,1
6114.2,1
5714.4,1
5959.6,1
5395.8,1
5268.1,1
5628.5,1
5139.5,1
5314.2,1
5091.3,1
4871.1,1
4978.6,1
4646.2,1
4395.6,1
4194.2,1
3107.8,1
2973.3,1
3962.8,1
3944.5,1
3446.1,1
3476.6,1
4072.2,1
3024.5,1
2706,1
2656.7,1
2699.1,1
2204.1,1
2233,1
1896.8,1
1631.1,1
1287.2,1
1058.4,1
1317.2,1
923.4,1
959.36,1
869.29,1
836.62,1
622.42,1
788.63,1
823.94,1
670.4,1
626.74,1
818.39,1
941.25,1
691.8,1
761.02,1
514.12,1
518.23,1
526.65,1
653.33,1
872.51,1
991.8,1
884.08,1
743.66,1
770.75,1
761.92,1
846.23,1
837.15,1
708.92,1
742.76,1
708.67,1
688.37,1
613.52,1
525.19,1
510.45,1
589.36,1
393.99,1
520.6,1
567.62,1
437.63,1
553.95,1
559.72,1
604.11,1
630.76,1
591.27,1
528.66,1
642.29,1
874.85,1
755.98,1
733.88,1
816.03,1
776.25,1
732.85,1
684.49,1
401.14,1
357.63,1
358.78,1
467.9,1
605.52,1
417.6,1
379.33,1
521.11,1
458.66,1
363.94,1
312.66,1
406.1,1
319.19,1
281.53,1
497.79,1
636.74,1
571.06,1
612.77,1
661.19,1
620.37,1
535.5,1
519.78,1
514.55,1
581.77,1
569.53,1
567.29,1
646.44,1
870.9,1
736.3,1
942.4,1
964,1
726.63,1
793.76,1
634.88,1
946.71,1
1085.5,1
1042.5,1
746.83,1
1226.7,1
1155.4,1
1387.5,1
1217.2,1
1388.4,1
1167.1,1
1219.1,1
1349.9,1
1556.7,1
1220.5,1
1292.4,1
1724.8,1
1892.6,1
1853.6,1
1545.8,1
1552.9,1
1500,1
1668,1
1582.5,1
1290.6,1
1129.2,1
1141.2,1
1172,1
1385.3,1
1412,1
1755.5,1
1959.3,1
1804.4,1
1699.2,1
1198.6,1
1150.1,1
789.94,1
453.92,1
297.96,1
267.25,1
275.68,1
115.24,1
46.78,1
84.443,1
111.86,1
31.713,1
0,0
106.49,0
2.5049,0
28.339,0
8.4596,0
154.37,0
27.713,0
84.8,0
3.9188,0
35.382,0
2.1212,0
84.76,0
27.003,0
67.959,0
0,0
251.21,0
30.135,0
25.381,0
26.647,0
104.15,0
128.37,1
80.2,1
302.48,1
578.12,1
906.22,1
821.37,1
988.97,1
1059.2,1
1297.4,1
1508.9,1
1832.8,1
2515.1,1
2821.8,1
3532.1,1
4056.5,1
4012,1
4018.1,1
3605.4,1
3387.9,1
3797.9,1
3227.1,1
3444,1
2993.6,1
2932.2,1
2575.3,1
2244.5,1
2229.4,1
1768,1
1854.8,1
1675.4,1
1533.5,1
1346.2,1
1444.3,1
1358.3,1
2451.6,1
2073,1
2077.2,1
2357.9,1
2297.8,1
2340.4,1
2245.1,1
2172.5,1
1971.7,1
1965.9,1
1719.8,1
1694,1
1717.7,1
1755.6,1
2142.6,1
2079.5,1
1840,1
1972,1
2196.6,1
2220.9,1
2355.2,1
2759.8,1
1999.4,1
2248.4,1
2346.2,1
1751.9,1
2199.6,1
1947,1
1546.8,1
1503.2,1
1757.6,1
1653.8,1
640.09,1
889.83,1
967.95,1
796.47,1
1060.5,1
682.98,1
558.33,1
744.79,1
898.61,1
769.74,1
750.66,1
576.36,1
457.45,1
582.97,1
361.46,1
274.05,1
172.86,1
68.354,1
95.786,1
141.98,1
55.979,1
0.27651,1
0.93547,0
80.888,0
79.811,0
9.682,0
55.512,0
54.158,0
2.1369,0
55.175,0
16.704,0
32.48,0
34.427,0
62.968,0
36.641,0
17.54,0
109.84,0
137.76,1
280.07,1
332.23,1
226.16,1
278.95,1
169.01,1
266.39,1
178.84,1
174.07,1
167.75,1
173.75,1
431.5,1
425.29,1
552.41,1
549.31,1
702.3,1
757.09,1
672.87,1
500.3,1
764.75,1
464.49,1
274.85,1
356.27,1
401.86,1
598.55,1
803,1
882.17,1
909.08,1
799.04,1
1016.4,1
977.51,1
1076.7,1
989.46,1
1086.9,1
829.69,1
618.57,1
676.27,1
610.26,1
774.78,1
469.5,1
343.01,1
184.23,1
97.831,1
117.25,1
44.02,1
109.02,1
155.94,1
83.579,1
6.0089,1
2.2101,1
55.931,0
44.153,0
54.503,0
206.19,0
127.84,0
68.593,0
36.027,0
104.36,1
152.05,1
99.651,1
280.69,1
412.89,1
238.96,1
377.55,1
377.06,1
338.09,1
345.33,1
442.8,1
374.06,1
400.31,1
252.92,1
367.79,1
424.75,1
579.34,1
624.3,1
823.86,1
921.21,1
782.75,1
941.58,1
794.41,1
876.55,1
763.75,1
977.92,1
1129.8,1
880.41,1
405.5,1
557.44,1
333.41,1
279.24,1
373.84,1
155.64,1
106.76,1
178.22,1
91.801,1
108.11,1
71.593,1
12.311,1
20.887,1
148.55,0
128.5,0
98.529,0
67.919,0
11.293,0
64.231,0
64.025,0
4.2089,0
10.929,1
179.77,1
397.29,1
504.88,1
1160.8,1
1554.3,1
1709,1
1443,1
927.72,1
905.52,1
1144.9,1
1271.6,1
925.25,1
1117.9,1
1038,1
919.23,1
1037.2,1
1241.7,1
1428.2,1
1664.2,1
2381.6,1
2477.4,1
1550.7,1
1400.9,1
1024.3,1
1112.3,1
1257.3,1
1096.3,1
775.94,1
856.87,1
845.85,1
779.55,1
838.43,1
540.82,1
530.85,1
594.89,1
647.2,1
702.74,1
587.44,1
573.14,1
560.21,1
628.23,1
558.66,1
618,1
601.67,1
636.97,1
486.02,1
427.89,1
321.27,1
307.47,1
273.8,1
343.73,1
629.6,1
551.76,1
628.11,1
536.08,1
820.63,1
755.7,1
973.55,1
613.69,1
609.72,1
771.18,1
531.83,1
463.64,1
395.12,1
363.49,1
404.04,1
592.76,1
531.56,1
514.91,1
465.53,1
473.45,1
511.57,1
383.36,1
378.57,1
332.9,1
581.6,1
592.08,1
436.55,1
334.44,1
504.46,1
531.66,1
530.31,1
414.28,1
369.14,1
465.7,1
423.7,1
418.14,1
381.67,1
418.56,1
555.61,1
350.09,1
369.69,1
433.27,1
637.49,1
712.25,1
597.93,1
576.57,1
561.09,1
831.95,1
619.59,1
775.99,1
835.14,1
823.21,1
688.56,1
473.55,1
613.33,1
832.3,1
982.57,1
1269.2,1
1175.1,1
1184.4,1
1034,1
773.87,1
913.92,1
1038.3,1
1414.4,1
1641.8,1
1186.2,1
1875.1,1
1880,1
1623.5,1
2221,1
1842.7,1
2122.3,1
1517.8,1
2164.2,1
1890.6,1
1661.1,1
1539.2,1
1343.2,1
1489.9,1
1996.5,1
1194.7,1
1100.1,1
1674.3,1
1483,1
1563.6,1
1559.4,1
1544.5,1
1392,1
1340.6,1
1180.1,1
1045.6,1
1364.6,1
1234.8,1
1121.2,1
1112.4,1
1098.8,1
727.17,1
844.47,1
1334.6,1
1228.6,1
1350.1,1
2638.5,1
3122.8,1
3116.3,1
2402.2,1
2263.3,1
1904.8,1
1864,1
1981.7,1
1986.1,1
1399.2,1
465.15,1
263.51,1
258.54,1
190.63,1
231.99,1
121.47,1
90.555,1
71.121,1
7.7624,0
99.159,0
42.349,0
0,0
5.7313,0
59.628,0
28.464,0
26.14,0
7.5462,0
6.5962,0
69.909,0
38.387,0
0,0
33.831,0
62.242,0
0,0
13.615,1
105.91,1
680.6,1
791.82,1
974.18,1
662.45,1
441.36,1
686.65,1
473.29,1
989.05,1
1067.9,1
1057.3,1
1271.5,1
1046.3,1
1855.3,1
1437,1
972.63,1
728.58,1
838.43,1
831.26,1
950.52,1
1550.5,1
1735.1,1
2229.6,1
2960.8,1
3572.6,1
4004.6,1
3838.8,1
4492.7,1
3188,1
3432.8,1
2957.3,1
3204.5,1
3105.8,1
2789.4,1
2697.8,1
2531.2,1
2446.1,1
2725.3,1
2982.7,1
3058.6,1
2130.1,1
2360.9,1
2790.5,1
2341.1,1
2480.4,1
2895.5,1
2028.1,1
2076.2,1
2318.2,1
2577.6,1
2454.6,1
2969.7,1
2377.6,1
2681.9,1
2910.5,1
1726,1
2093.2,1
2088,1
1214,1
916.99,1
1164.3,1
703.99,1
827.11,1
352.98,1
397.17,0
499.54,0
570.13,0
349.41,0
485.85,0
441.81,0
387.63,0
360.06,0
347.74,0
219.98,0
183.27,0
332.7,0
289.22,0
304.79,0
334.97,1
522.78,1
460.49,1
739.41,1
1079.4,1
1248.6,1
1088.4,1
1341.9,1
979.82,1
960.69,1
1131.5,1
1766.2,1
2749.4,1
3353.8,1
3802.8,1
4760.2,1
5656.4,1
6122.3,1
6680.9,1
6211.9,1
6318.8,1
6882.2,1
5829.2,1
5474.1,1
5785.3,1
6376.7,1
6296.8,1
5793.3,1
6454,1
6643.4,1
6546.3,1
6030.8,1
5800.7,1
5987.6,1
5245.5,1
5231.7,1
5691.5,1
5084,1
5291,1
4987.7,1
4968.6,1
4876.4,1
4953.9,1
4301.2,1
4151.9,1
3202.8,1
2974.3,1
3835.7,1
3783.4,1
3323.8,1
3692,1
3933.3,1
2921.5,1
2652.8,1
2646,1
2632.7,1
2172.4,1
2229.3,1
2104.6,1
1684.4,1
1127.2,1
1146,1
1394.6,1
1081.2,1
1112.9,1
1040.2,1
971.66,1
781.48,1
1047,1
992.66,1
772.03,1
812.76,1
1083.7,1
992.26,1
732.32,1
798.87,1
708.5,1
615.82,1
702.78,1
720.58,1
919.6,1
1029.7,1
979.71,1
723.71,1
736.8,1
753.52,1
914.56,1
753.85,1
754.54,1
971.86,1
821.73,1
706.51,1
581.16,1
606.33,1
536.79,1
670.15,1
671.28,1
702.89,1
670.83,1
757.64,1
1277.8,1
1004,1
1104.9,1
900.4,1
1125.8,1
1155.3,1
834.54,1
1018.6,1
922.06,1
968.68,1
1109.9,1
1003.7,1
876.04,1
807.18,1
598.95,1
1009.1,1
1021.3,1
706.1,1
664.49,1
724.45,1
480.05,1
458.06,1
367.67,1
708.58,1
644.52,1
545.67,1
449.17,1
661.37,1
850.48,1
934.26,1
839.79,1
770.06,1
1034.4,1
925.58,1
651.99,1
506.9,1
557.42,1
600.35,1
651.72,1
715.87,1
794.8,1
1182.5,1
1058.2,1
1109.2,1
948.27,1
1096.1,1
1097.1,1
817.79,1
1215.1,1
1281,1
1425.5,1
1059.5,1
1449.7,1
1312.5,1
1513,1
1349.1,1
1622.5,1
1372.9,1
1348,1
1525.5,1
1798.4,1
1082.8,1
1048.5,1
1603.7,1
1513.7,1
1467.7,1
1423,1
1288.1,1
1256.2,1
1447.2,1
1277.1,1
1074,1
973.81,1
904.72,1
851.77,1
1138.6,1
924.31,1
1322.2,1
1468.9,1
1234.6,1
1293.7,1
889.74,1
829.4,1
330.69,1
140.24,1
94.986,1
64.925,1
90.448,1
0,1
68.665,1
126.22,1
0,1
0,1
16.142,0
0,0
1.3154,0
37.101,0
31.327,0
0,0
97.731,0
67.363,0
10.177,0
9.2209,0
0.076616,0
0.8165,0
128.71,0
112.37,0
13.949,0
16.327,0
92.561,0
2.518,0
105.99,0
155.33,0
149.74,1
153.9,1
194.59,1
624.95,1
892.93,1
826.59,1
960.21,1
1061.5,1
1317.3,1
1428.5,1
1826.9,1
2328.4,1
2930.3,1
3472.2,1
3924,1
3933,1
3974.8,1
3497.1,1
3325,1
3682.6,1
3061,1
3285.2,1
2989.3,1
2754.9,1
2413.9,1
2098.3,1
2099,1
1703,1
1867.8,1
1674.5,1
1639.4,1
1317.7,1
1460.6,1
1349,1
2434.8,1
2025.4,1
2003.5,1
2367.6,1
2205.4,1
2195.2,1
2261.4,1
2214.9,1
2011.6,1
1932.9,1
1667.2,1
1818.5,1
1770.7,1
2016.5,1
2316.5,1
2307.9,1
2086,1
2293.2,1
2528,1
2365.7,1
2504.2,1
2618.3,1
2311,1
2200.2,1
2416.2,1
1628.1,1
2287.9,1
1853.9,1
1531.3,1
1646.1,1
1756.6,1
1708.4,1
607.55,1
890.09,1
1002.3,1
790.06,1
1160.6,1
756.77,1
661.22,1
903.75,1
925.85,1
868.88,1
847.92,1
873.75,1
626.61,1
742.83,1
311.6,1
274.38,1
266.03,1
275.37,1
250.9,1
421.88,1
137.58,1
193.18,1
249.94,0
179.82,0
158.7,0
182.49,0
208.85,0
189.66,0
109.79,0
139.64,0
228.64,0
258.94,0
227.18,0
118.08,0
148.23,0
66.094,0
358.33,0
278.49,1
391.18,1
413.41,1
216.37,1
396.86,1
304.68,1
461.36,1
393.15,1
237.93,1
170.4,1
184.16,1
409.11,1
481.66,1
747.07,1
545.47,1
795.76,1
872.39,1
775.16,1
615.76,1
733.98,1
604.47,1
395.17,1
445.52,1
529.59,1
696.55,1
776.96,1
1016.6,1
926.46,1
866.12,1
1137.1,1
986.85,1
1240.5,1
1145.1,1
1224.9,1
837.11,1
661.78,1
742.16,1
652.36,1
932.04,1
457.15,1
307.34,1
155.78,1
176.29,1
139.18,1
134.59,1
118.7,1
240.81,1
113.64,1
203.29,1
79.305,1
121.15,0
181.31,0
106.83,0
61.146,0
102.46,0
128.79,0
85.011,0
32.017,1
137.38,1
232.99,1
378.69,1
442.72,1
368,1
409.29,1
407.18,1
339.88,1
413.72,1
521.48,1
439.05,1
471.8,1
620.21,1
600.12,1
537.39,1
552.65,1
574.65,1
928.76,1
913.91,1
745.12,1
1157.9,1
930.04,1
883.22,1
859.9,1
913.81,1
1225.1,1
928.49,1
387.07,1
446.92,1
399.18,1
356.22,1
330,1
375.42,1
185.95,1
342.23,1
330.76,1
197.88,1
182.8,1
230.35,1
178.61,1
231.28,0
388.09,0
321.17,0
211.87,0
126.26,0
174.24,0
196.24,0
198.42,0
238.57,1
297.48,1
488.04,1
638.78,1
1273,1
1796.9,1
1838.3,1
1394.6,1
1157.7,1
1182.6,1
1265.2,1
1276.3,1
1065.9,1
1195.1,1
1142.9,1
1114.4,1
1201.1,1
1433.6,1
1529.9,1
1800.4,1
2398.4,1
2582.3,1
1702.4,1
1479.7,1
1165,1
1205.7,1
1351.7,1
1252.7,1
967.73,1
900.82,1
851.92,1
863.63,1
873.35,1
742.08,1
524.11,1
817.56,1
703.56,1
771.75,1
678.01,1
603.22,1
631.77,1
753.65,1
709.74,1
658.98,1
587.77,1
640.45,1
775.6,1
498.7,1
498.17,1
500.36,1
619.44,1
454.1,1
498.79,1
440.4,1
483.85,1
402.54,1
367.63,1
508.53,1
532.68,1
474.92,1
527.73,1
590.72,1
607.19,1
478.08,1
454.61,1
395.39,1
468.07,1
501.38,1
587.79,1
577.31,1
672.12,1
627.02,1
554.68,1
531.97,1
340.63,1
376.76,1
545.61,1
620.67,1
523.8,1
433.85,1
477.73,1
719.27,1
490.92,1
445.48,1
412.3,1
485.23,1
479.15,1
618.37,1
556.72,1
555.5,1
563,1
360.83,1
332.83,1
518.99,1
808.49,1
801.76,1
744.84,1
684.15,1
617.19,1
909,1
803.93,1
892.22,1
944.38,1
833.11,1
816.21,1
673.65,1
739.62,1
971.08,1
1121.8,1
1226.7,1
1233,1
1414.1,1
1110.2,1
909.94,1
1021.9,1
1379.8,1
1574.9,1
1731.4,1
1394,1
1824,1
1864,1
1738.5,1
2197.8,1
1887.5,1
2192.2,1
1700.6,1
2130,1
1939.8,1
1696.6,1
1613.9,1
1213.5,1
1479,1
2074.9,1
1413.6,1
1217.1,1
1681.4,1
1491.3,1
1731.2,1
1595.5,1
1615.8,1
1465.3,1
1333.8,1
1292.4,1
1023.2,1
1400.4,1
1253.5,1
1063.7,1
1216,1
1192.5,1
783.9,1
851.1,1
1448.6,1
1241.1,1
1378.1,1
2744.4,1
3081.6,1
3081,1
2358.7,1
2299.2,1
1973.7,1
1918.5,1
1875.5,1
2057,1
1377.3,1
468.54,1
346.35,1
500.47,1
299.94,1
290.06,1
247.94,1
217,1
179.45,1
152.25,0
203.83,0
123.75,0
221.29,0
221,0
84.887,0
71.329,0
0,0
142.69,0
188.95,0
44.43,0
45.02,0
0,0
0,0
0,0
0,0
0,0
0,0
0,0
9.3537,0
9.3537,0
0,0
0,0
115.15,0
115.15,0
41.352,0
41.352,0
145.98,0
145.98,0
248.63,0
248.63,0
15.035,0
15.035,0
352.63,0
352.63,0
1111.7,0
1111.7,0
1777.1,0
1777.1,0
2514.9,0
2514.9,0
2643.8,0
2643.8,0
2804.4,0
2804.4,0
2967.1,0
2967.1,0
3109.3,0
3109.3,0
3150.7,0
3150.7,0
1954.3,0
1954.3,0
2110.2,0
2110.2,0
2538.1,0
2538.1,0
1543.6,0
1543.6,0
2035.1,0
2035.1,0
2097.7,0
2097.7,0
1644.5,0
1644.5,0
821.61,0
821.61,0
573.89,0
573.89,0
703.03,0
703.03,0
401.43,0
401.43,0
343.51,0
343.51,0
150.94,0
150.94,0
78.903,0
78.903,0
55.293,0
55.293,0
107.45,0
107.45,0
15.192,0
15.192,0
0,0
0,0
0,0
0,0
0,0
0,0
15.714,0
15.714,0
0,0
0,0
0,0
0,0
62.588,0
62.588,0
89.512,0
89.512,0
26.041,0
26.041,0
34.301,0
34.301,0
78.635,0
78.635,0
32.202,0
32.202,0
7.4967,0
7.4967,0
131.15,0
131.15,0
80.446,0
80.446,0
150.39,0
150.39,0
111.91,0
111.91,0
131.63,0
131.63,0
108.38,0
108.38,0
85.89,0
85.89,0
79.522,0
79.522,0
80.272,0
80.272,0
147.65,0
147.65,0
176.63,0
176.63,0
208.56,0
208.56,0
222.81,0
222.81,0
439.67,0
439.67,0
342.29,0
342.29,0
552.3,0
552.3,0
502.07,0
502.07,0
416.8,0
416.8,0
223.86,0
223.86,0
273.71,0
273.71,0
195.78,0
195.78,0
368.45,0
368.45,0
555.42,0
555.42,0
632.39,0
632.39,0
458.93,0
458.93,0
683.86,0
683.86,0
603.84,0
603.84,0
658.48,0
658.48,0
1047.4,0
1047.4,0
859.5,0
859.5,0
716.32,0
716.32,0
705.99,0
705.99,0
830.53,0
830.53,0
820.96,0
820.96,0
746.8,0
746.8,0
843.01,0
843.01,0
973.16,0
973.16,0
1005.8,0
1005.8,0
619.92,0
619.92,0
819.07,0
819.07,0
760.7,0
760.7,0
1124.6,0
1124.6,0
1191.1,0
1191.1,0
1736.7,0
1736.7,0
2844.1,0
2844.1,0
2982.6,0
2982.6,0
2540.4,0
2540.4,0
1216.8,0
1216.8,0
1087.2,0
1087.2,0
1114.4,0
1114.4,0
1186.8,0
1186.8,0
878.85,0
878.85,0
858.84,0
858.84,0
604.98,0
604.98,0
979.99,0
979.99,0
989.62,0
989.62,0
1415.2,0
1415.2,0
1100.8,0
1100.8,0
656.37,0
656.37,0
759.42,0
759.42,0
991.35,0
991.35,0
1110,0
1110,0
807.62,0
807.62,0
1288.2,0
1288.2,0
1503.1,0
1503.1,0
1154.7,0
1154.7,0
745.01,0
745.01,0
1272.7,0
1272.7,0
1263.3,0
1263.3,0
765.47,0
765.47,0
752.67,0
752.67,0
610.77,0
610.77,0
459.15,0
459.15,0
344.01,0
344.01,0
463.64,0
463.64,0
586.39,0
586.39,0
771.19,0
771.19,0
784.87,0
784.87,0
616.27,0
616.27,0
1154.1,0
1154.1,0
663.81,0
663.81,0
626.13,0
626.13,0
480.54,0
480.54,0
297.05,0
297.05,0
306,0
306,0
412.23,0
412.23,0
325.28,0
325.28,0
181.79,0
181.79,0
209.59,0
209.59,0
209.91,0
209.91,0
170.91,0
170.91,0
127.79,0
127.79,0
119.11,0
119.11,0
93.388,0
93.388,0
117.9,0
117.9,0
204.13,0
204.13,0
161.16,0
161.16,0
250.84,0
250.84,0
455.44,0
455.44,0
477.87,0
477.87,0
340.98,0
340.98,0
413.23,0
413.23,0
412.99,0
412.99,0
242.48,0
242.48,0
344.74,0
344.74,0
169.52,0
169.52,0
271.76,0
271.76,0
154.73,0
154.73,0
169.81,0
169.81,0
123.91,0
123.91,0
58.649,0
58.649,0
202.98,0
202.98,0
364.29,0
364.29,0
435.81,0
435.81,0
395.06,0
395.06,0
339.73,0
339.73,0
252.62,0
252.62,0
230.47,0
230.47,0
259.29,0
259.29,0
411.91,0
411.91,0
311.11,0
311.11,0
294.92,0
294.92,0
219.57,0
219.57,0
291.61,0
291.61,0
317.73,0
317.73,0
394.53,0
394.53,0
296.34,0
296.34,0
275.16,0
275.16,0
215.49,0
215.49,0
257.17,0
257.17,0
141.97,0
141.97,0
325.53,0
325.53,0
374.83,0
374.83,0
411.9,0
411.9,0
367.78,0
367.78,0
711.03,0
711.03,0
664.48,0
664.48,0
776.48,0
776.48,0
721.48,0
721.48,0
814.81,0
814.81,0
1016.7,0
1016.7,0
614.45,0
614.45,0
782.36,0
782.36,0
415.02,0
415.02,0
357.14,0
357.14,0
180.85,0
180.85,0
192.41,0
192.41,0
267.41,0
267.41,0
421.97,0
421.97,0
1478.4,0
1478.4,0
1992.6,0
1992.6,0
1621,0
1621,0
1393.5,0
1393.5,0
1125.3,0
1125.3,0
1247.8,0
1247.8,0
1786.7,0
1786.7,0
1056.9,0
1056.9,0
854.7,0
854.7,0
658.52,0
658.52,0
673.28,0
673.28,0
438.35,0
438.35,0
554.48,0
554.48,0
478.37,0
478.37,0
388.41,0
388.41,0
480.66,0
480.66,0
318.71,0
318.71,0
487.38,0
487.38,0
281.48,0
281.48,0
172.15,0
172.15,0
367.58,0
367.58,0
261.38,0
261.38,0
117.09,0
117.09,0
53.255,0
53.255,0
81.421,0
81.421,0
87.361,0
87.361,0
142.44,0
142.44,0
119.07,0
119.07,0
82.886,0
82.886,0
105.69,0
105.69,0
81.636,0
81.636,0
120.89,0
120.89,0
151.06,0
151.06,0
251.33,0
251.33,0
754.23,0
754.23,0
484.23,0
484.23,0
534.58,0
534.58,0
520.96,0
520.96,0
436.32,0
436.32,0
456.13,0
456.13,0
373.66,0
373.66,0
393.28,0
393.28,0
439.42,0
439.42,0
346.68,0
346.68,0
517.89,0
517.89,0
716.98,0
716.98,0
555.32,0
555.32,0
807.85,0
807.85,0
583.34,0
583.34,0
250.15,0
250.15,0
400.44,0
400.44,0
291.73,0
291.73,0
377.93,0
377.93,0
144.49,0
144.49,0
340.11,0
340.11,0
448.65,0
448.65,0
352.84,0
352.84,0
847.1,0
847.1,0
1910.2,0
1910.2,0
1100.4,0
1100.4,0
689.53,0
689.53,0
659.02,0
659.02,0
690.35,0
690.35,0
599.57,0
599.57,0
360.53,0
360.53,0
496.19,0
496.19,0
868.53,0
868.53,0
994.22,0
994.22,0
1068.4,0
1068.4,0
700.17,0
700.17,0
779.91,0
779.91,0
926,0
926,0
746.19,0
746.19,0
686.4,0
686.4,0
589.31,0
589.31,0
759.71,0
759.71,0
944.19,0
944.19,0
697.39,0
697.39,0
516.24,0
516.24,0
621.11,0
621.11,0
558.8,0
558.8,0
591.32,0
591.32,0
881.05,0
881.05,0
983.5,0
983.5,0
1128.4,0
1128.4,0
825.57,0
825.57,0
796.7,0
796.7,0
893.36,0
893.36,0
612.72,0
612.72,0
476.45,0
476.45,0
273.01,0
273.01,0
211,0
211,0
225.7,0
225.7,0
219.08,0
219.08,0
47.604,0
47.604,0
72.427,0
72.427,0
111.83,0
111.83,0
94.2,0
94.2,0
277.8,0
277.8,0
344.41,0
344.41,0
237.3,0
237.3,0
203.07,0
203.07,0
373.73,0
373.73,0
539.01,0
539.01,0
230.22,0
230.22,0
493.63,0
493.63,0
247.78,0
247.78,0
582.99,0
582.99,0
280.83,0
280.83,0
402.67,0
402.67,0
286.16,0
286.16,0
377.64,0
377.64,0
555.9,0
555.9,0
453.89,0
453.89,0
589.78,0
589.78,0
634.06,0
634.06,0
501.13,0
501.13,0
307.17,0
307.17,0
330.33,0
330.33,0
191.9,0
191.9,0
332.76,0
332.76,0
575.14,0
575.14,0
633.57,0
633.57,0
350.9,0
350.9,0
508.84,0
508.84,0
617.47,0
617.47,0
294.72,0
294.72,0
171.51,0
171.51,0
188.55,0
188.55,0
36.87,0
36.87,0
33.642,0
33.642,0
198.49,0
198.49,0
328.26,0
328.26,0
524.72,0
524.72,0
1129.6,0
1129.6,0
352.79,0
352.79,0
213.03,0
213.03,0
243.13,0
243.13,0
340.66,0
340.66,0
79.868,0
79.868,0
178.87,0
178.87,0
170.26,0
170.26,0
178.55,0
178.55,0
164.72,0
164.72,0
362.8,0
362.8,0
268.6,0
268.6,0
293.66,0
293.66,0
196.38,0
196.38,0
288.25,0
288.25,0
239.31,0
239.31,0
83.525,0
83.525,0
406.15,0
406.15,0
349.93,0
349.93,0
218.08,0
218.08,0
492.24,0
492.24,0
452.36,0
452.36,0
458.27,0
458.27,0
1077.1,0
1077.1,0
2513.2,0
2513.2,0
1965,0
1965,0
1083.6,0
1083.6,0
957.9,0
957.9,0
881.46,0
881.46,0
894.94,0
894.94,0
265.41,0
265.41,0
620.84,0
620.84,0
763.9,0
763.9,0
632.74,0
632.74,0
1010.2,0
1010.2,0
738.88,0
738.88,0
747.78,0
747.78,0
701.64,0
701.64,0
592.5,0
592.5,0
200.26,0
200.26,0
385.46,0
385.46,0
357.97,0
357.97,0
491.75,0
491.75,0
519.33,0
519.33,0
846.63,0
846.63,0
993.9,0
993.9,0
900.33,0
900.33,0
714.83,0
714.83,0
459.95,0
459.95,0
429.69,0
429.69,0
509.97,0
509.97,0
464.2,0
464.2,0
338.14,0
338.14,0
416.5,0
416.5,0
1080.7,0
1080.7,0
1359.4,0
1359.4,0
1105.6,0
1105.6,0
1208.7,0
1208.7,0
1893.1,0
1893.1,0
1491.9,0
1491.9,0
0,0
0,0
26.922,0
26.922,0
38.302,0
38.302,0
43.815,0
43.815,0
0,0
0,0
40.387,0
40.387,0
66.013,0
66.013,0
54.497,0
54.497,0
6.296,0
6.296,0
0,0
0,0
31.23,0
31.23,0
37.875,0
37.875,0
12.022,0
12.022,0
14.09,0
14.09,0
1.081,0
1.081,0
44.3,0
44.3,0
64.424,0
64.424,0
26.545,0
26.545,0
3.2721,0
3.2721,0
33.946,0
33.946,0
5.9863,0
5.9863,0
28.545,0
28.545,0
18.98,0
18.98,0
27.775,0
27.775,0
0.51975,0
0.51975,0
3.5924,0
3.5924,0
15.105,0
15.105,0
14.379,0
14.379,0
3.1429,0
3.1429,0
44.788,0
44.788,0
155.67,0
155.67,0
33.838,0
33.838,0
10.632,0
10.632,0
91.112,0
91.112,0
138.89,0
138.89,0
35.518,0
35.518,0
45.691,0
45.691,0
18.213,0
18.213,0
29.963,0
29.963,0
25.817,0
25.817,0
10.966,0
10.966,0
33.331,0
33.331,0
12.245,0
12.245,0
55.603,0
55.603,0
7.1325,0
7.1325,0
26.441,0
26.441,0
35.805,0
35.805,0
7.9663,0
7.9663,0
3.367,0
3.367,0
23.749,0
23.749,0
23.9,0
23.9,0
20.812,0
20.812,0
29.565,0
29.565,0
79.668,0
79.668,0
16.987,0
16.987,0
72.503,0
72.503,0
85.092,0
85.092,0
51.247,0
51.247,0
51.08,0
51.08,0
47.631,0
47.631,0
0.83739,0
0.83739,0
36.693,0
36.693,0
62.712,0
62.712,0
40.311,0
40.311,0
10.878,0
10.878,0
30.468,0
30.468,0
30.512,0
30.512,0
67.017,0
67.017,0
52.932,0
52.932,0
65.539,0
65.539,0
0,0
0,0
44.391,0
44.391,0
56.567,0
56.567,0
8.531,0
8.531,0
49.101,0
49.101,0
11.576,0
11.576,0
85.762,0
85.762,0
164.94,0
164.94,0
91.573,0
91.573,0
19.079,0
19.079,0
14.78,0
14.78,0
3.3702,0
3.3702,0
63.535,0
63.535,0
16.63,0
16.63,0
19.119,0
19.119,0
5.868,0
5.868,0
84.547,0
84.547,0
78.714,0
78.714,0
265.62,0
265.62,0
194.63,0
194.63,0
196.06,0
196.06,0
309.95,0
309.95,0
258.32,0
258.32,0
229.84,0
229.84,0
199.6,0
199.6,0
234.84,0
234.84,0
125.76,0
125.76,0
65.8,0
65.8,0
13.25,0
13.25,0
28.749,0
28.749,0
14.23,0
14.23,0
19.63,0
19.63,0
19.724,0
19.724,0
47.468,0
47.468,0
4.6477,0
4.6477,0
18.811,0
18.811,0
77.27,0
77.27,0
20.628,0
20.628,0
39.673,0
39.673,0
1.2768,0
1.2768,0
128.13,0
128.13,0
16.824,0
16.824,0
64.328,0
64.328,0
16.756,0
16.756,0
21.316,0
21.316,0
14.366,0
14.366,0
61.837,0
61.837,0
16.234,0
16.234,0
52.834,0
52.834,0
11.646,0
11.646,0
212.65,0
212.65,0
36.97,0
36.97,0
10.053,0
10.053,0
12.276,0
12.276,0
72.77,0
72.77,0
29.463,0
29.463,0
30.532,0
30.532,0
96.149,0
96.149,0
7.2222,0
7.2222,0
23.711,0
23.711,0
8.6259,0
8.6259,0
39.723,0
39.723,0
53.528,0
53.528,0
22.684,0
22.684,0
148.32,0
148.32,0
2.6965,0
2.6965,0
122.41,0
122.41,0
14.645,0
14.645,0
20.027,0
20.027,0
156.77,0
156.77,0
32.257,0
32.257,0
71.579,0
71.579,0
9.5178,0
9.5178,0
8.0997,0
8.0997,0
3.5274,0
3.5274,0
37.032,0
37.032,0
7.9279,0
7.9279,0
10.251,0
10.251,0
8.6875,0
8.6875,0
25.104,0
25.104,0
15.837,0
15.837,0
5.8181,0
5.8181,0
9.1926,0
9.1926,0
35.597,0
35.597,0
6.8363,0
6.8363,0
34.324,0
34.324,0
17.389,0
17.389,0
16.547,0
16.547,0
5.0062,0
5.0062,0
11.287,0
11.287,0
44.608,0
44.608,0
12.009,0
12.009,0
2.3708,0
2.3708,0
49.707,0
49.707,0
69.371,0
69.371,0
24.212,0
24.212,0
8.3292,0
8.3292,0
0.2115,0
0.2115,0
71.173,0
71.173,0
16.181,0
16.181,0
27.101,0
27.101,0
6.9008,0
6.9008,0
4.3212,0
4.3212,0
19.147,0
19.147,0
19.286,0
19.286,0
0.87461,0
0.87461,0
30.012,0
30.012,0
23.868,0
23.868,0
34.689,0
34.689,0
34.005,0
34.005,0
87.85,0
87.85,0
37.738,0
37.738,0
39.376,0
39.376,0
24.682,0
24.682,0
32.395,0
32.395,0
27.279,0
27.279,0
5.6028,0
5.6028,0
3.5563,0
3.5563,0
43.484,0
43.484,0
87.981,0
87.981,0
36.231,0
36.231,0
31.53,0
31.53,0
56.148,0
56.148,0
11.105,0
11.105,0
35.654,0
35.654,0
13.886,0
13.886,0
0,0
0,0
9.6656,0
9.6656,0
10.369,0
10.369,0
60.044,0
60.044,0
44.238,0
44.238,0
20.63,0
20.63,0
10.484,0
10.484,0
13.832,0
13.832,0
3.4811,0
3.4811,0
109.88,0
109.88,0
86.763,0
86.763,0
56.997,0
56.997,0
39.335,0
39.335,0
1.1483,0
1.1483,0
39.045,0
39.045,0
44.699,0
44.699,0
5.3615,0
5.3615,0
23.95,0
23.95,0
1.375,0
1.375,0
29.94,0
29.94,0
57.907,0
57.907,0
19.626,0
19.626,0
18.316,0
18.316,0
27.347,0
27.347,0
10.791,0
10.791,0
27.671,0
27.671,0
27.279,0
27.279,0
36.739,0
36.739,0
43.249,0
43.249,0
91.723,0
91.723,0
22.76,0
22.76,0
31.157,0
31.157,0
2.8996,0
2.8996,0
11.94,0
11.94,0
6.728,0
6.728,0
37.182,0
37.182,0
0.95762,0
0.95762,0
131.37,0
131.37,0
55.945,0
55.945,0
21.496,0
21.496,0
61.015,0
61.015,0
0,0
0,0
89.008,0
89.008,0
143.62,0
143.62,0
125.26,0
125.26,0
94.956,0
94.956,0
159.72,0
159.72,0
111.02,0
111.02,0
69.784,0
69.784,0
56.506,0
56.506,0
3.2054,0
3.2054,0
40.449,0
40.449,0
0.88382,0
0.88382,0
37.106,0
37.106,0
64.645,0
64.645,0
8.0545,0
8.0545,0
417.99,0
417.99,0
270.64,0
270.64,0
445.89,0
445.89,0
123.99,0
123.99,0
129.71,0
129.71,0
240.85,0
240.85,0
100.43,0
100.43,0
75.6,0
75.6,0
53.03,0
53.03,0
88.504,0
88.504,0
74.272,0
74.272,0
217.84,0
217.84,0
139.94,0
139.94,0
104.33,0
104.33,0
59.903,0
59.903,0
45.867,0
45.867,0
188.37,0
188.37,0
45.711,0
45.711,0
99.796,0
99.796,0
32.664,0
32.664,0
120.27,0
120.27,0
64.594,0
64.594,0
23.537,0
23.537,0
16.716,0
16.716,0
92.174,0
92.174,0
1.5447,0
1.5447,0
53.623,0
53.623,0
4.2461,0
4.2461,0
2.9056,0
2.9056,0
32.953,0
32.953,0
49.098,0
49.098,0
13.612,0
13.612,0
6.9634,0
6.9634,0
10.359,0
10.359,0
41.701,0
41.701,0
6.4072,0
6.4072,0
44.267,0
44.267,0
38.064,0
38.064,0
32.586,0
32.586,0
38.052,0
38.052,0
92.433,0
92.433,0
16.082,0
16.082,0
7.4156,0
7.4156,0
23.18,0
23.18,0
30.285,0
30.285,0
25.324,0
25.324,0
126.1,0
126.1,0
24.834,0
24.834,0
7.6038,0
7.6038,0
18.229,0
18.229,0
29.359,0
29.359,0
39.158,0
39.158,0
23.256,0
23.256,0
51.159,0
51.159,0
5.346,0
5.346,0
11.272,0
11.272,0
15.635,0
15.635,0
41.639,0
41.639,0
3.7894,0
3.7894,0
33.871,0
33.871,0
40.06,0
40.06,0
5.0623,0
5.0623,0
38.601,0
38.601,0
27.835,0
27.835,0
0.64294,0
0.64294,0
34.714,0
34.714,0
54.97,0
54.97,0
16.245,0
16.245,0
18.641,0
18.641,0
20.43,0
20.43,0
90.536,0
90.536,0
33.439,0
33.439,0
52.911,0
52.911,0
34.755,0
34.755,0
95.81,0
95.81,0
16.258,0
16.258,0
4.2109,0
4.2109,0
1.9554,0
1.9554,0
1.3943,0
1.3943,0
72.338,0
72.338,0
27.404,0
27.404,0
24.199,0
24.199,0
1.5758,0
1.5758,0
47.079,0
47.079,0
23.432,0
23.432,0
3.2409,0
3.2409,0
18.163,0
18.163,0
4.543,0
4.543,0
4.7966,0
4.7966,0
70.474,0
70.474,0
33.939,0
33.939,0
53.615,0
53.615,0
37.956,0
37.956,0
38.276,0
38.276,0
47.002,0
47.002,0
47.047,0
47.047,0
29.637,0
29.637,0
3.2031,0
3.2031,0
4.8135,0
4.8135,0
40.758,0
40.758,0
6.6074,0
6.6074,0
15.374,0
15.374,0
2.2446,0
2.2446,0
28.433,0
28.433,0
2.4934,0
2.4934,0
24.643,0
24.643,0
42.626,0
42.626,0
37.655,0
37.655,0
43.006,0
43.006,0
35.537,0
35.537,0
9.3214,0
9.3214,0
32.276,0
32.276,0
85.611,0
85.611,0
0.80549,0
0.80549,0
12.071,0
12.071,0
27.602,0
27.602,0
41.157,0
41.157,0
48.026,0
48.026,0
0.19132,0
0.19132,0
17.818,0
17.818,0
12.613,0
12.613,0
10.495,0
10.495,0
33.53,0
33.53,0
55.382,0
55.382,0
27.125,0
27.125,0
29.637,0
29.637,0
7.9177,0
7.9177,0
33.55,0
33.55,0
2.1783,0
2.1783,0
24.118,0
24.118,0
38.498,0
38.498,0
40.843,0
40.843,0
44.538,0
44.538,0
11.498,0
11.498,0
27.513,0
27.513,0
87.967,0
87.967,0
35.484,0
35.484,0
13.16,0
13.16,0
21.299,0
21.299,0
0,0
0,0
8.0123,0
8.0123,0
46.233,0
46.233,0
0,0
0,0
429.29,0
429.29,0
447.69,0
447.69,0
282.87,0
282.87,0
251.73,0
251.73,0
478.1,0
478.1,0
246.12,0
246.12,0
343.88,0
343.88,0
202.64,0
202.64,0
315.6,0
315.6,0
495.93,0
495.93,0
399.74,0
399.74,0
246.76,0
246.76,0
313.77,0
313.77,0
361.88,0
361.88,0
343.86,0
343.86,0
321.43,0
321.43,0
356.1,0
356.1,0
215.16,0
215.16,0
172.39,0
172.39,0
359.37,0
359.37,0
273.6,0
273.6,0
309.66,0
309.66,0
269.87,0
269.87,0
258.66,0
258.66,0
109.76,0
109.76,0
323.41,0
323.41,0
304.28,0
304.28,0
343.21,0
343.21,0
135.89,0
135.89,0
91.314,0
91.314,0
86.968,0
86.968,0
310.16,0
310.16,0
302.89,0
302.89,0
219.64,0
219.64,0
135.15,0
135.15,0
365.46,0
365.46,0
423.12,0
423.12,0
375.43,0
375.43,0
294.74,0
294.74,0
144.88,0
144.88,0
354.27,0
354.27,0
337.97,0
337.97,0
117.76,0
117.76,0
32.395,0
32.395,0
75.377,0
75.377,0
68.745,0
68.745,0
131.72,0
131.72,0
229.67,0
229.67,0
183.93,0
183.93,0
472.53,0
472.53,0
363.19,0
363.19,0
273.71,0
273.71,0
211.63,0
211.63,0
327.65,0
327.65,0
328.06,0
328.06,0
183.55,0
183.55,0
339.31,0
339.31,0
293.31,0
293.31,0
392.04,0
392.04,0
330.51,0
330.51,0
351.9,0
351.9,0
198.87,0
198.87,0
157.4,0
157.4,0
184.91,0
184.91,0
263.73,0
263.73,0
201.91,0
201.91,0
261.04,0
261.04,0
283.26,0
283.26,0
277.56,0
277.56,0
129.68,0
129.68,0
86.989,0
86.989,0
139.17,0
139.17,0
89.874,0
89.874,0
67.026,0
67.026,0
228.71,0
228.71,0
41.63,0
41.63,0
34.829,0
34.829,0
64.924,0
64.924,0
47.073,0
47.073,0
82.213,0
82.213,0
102.36,0
102.36,0
12.3,0
12.3,0
40.091,0
40.091,0
52.888,0
52.888,0
34.139,0
34.139,0
0,0
0,0
44.7,0
44.7,0
87.573,0
87.573,0
125.14,0
125.14,0
213.92,0
213.92,0
146.1,0
146.1,0
28.759,0
28.759,0
84.631,0
84.631,0
54.539,0
54.539,0
31.069,0
31.069,0
43.356,0
43.356,0
1.6291,0
1.6291,0
126.01,0
126.01,0
188.66,0
188.66,0
22.91,0
22.91,0
0.22498,0
0.22498,0
16.62,0
16.62,0
0,0
0,0
6.7612,0
6.7612,0
49.002,0
49.002,0
43.08,0
43.08,0
0.29751,0
0.29751,0
88.754,0
88.754,0
61.226,0
61.226,0
4.7401,0
4.7401,0
0.63665,0
0.63665,0
0.48972,0
0.48972,0
0,0
0,0
120.9,0
120.9,0
104.63,0
104.63,0
9.979,0
9.979,0
16.289,0
16.289,0
88.421,0
88.421,0
0,0
0,0
97.411,0
97.411,0
116.73,0
116.73,0
56.508,0
56.508,0
33.454,0
33.454,0
2.6292,0
2.6292,0
37.681,0
37.681,0
10.222,0
10.222,0
41.515,0
41.515,0
71.209,0
71.209,0
57.46,0
57.46,0
98.7,0
98.7,0
192.35,0
192.35,0
115.76,0
115.76,0
79.528,0
79.528,0
239.73,0
239.73,0
181.08,0
181.08,0
31.185,0
31.185,0
18.672,0
18.672,0
69.425,0
69.425,0
32.031,0
32.031,0
72.479,0
72.479,0
65.159,0
65.159,0
25.19,0
25.19,0
48.66,0
48.66,0
148.23,0
148.23,0
81.896,0
81.896,0
17.202,0
17.202,0
28.615,0
28.615,0
7.4166,0
7.4166,0
55.546,0
55.546,0
62.374,0
62.374,0
81.082,0
81.082,0
144.84,0
144.84,0
58.844,0
58.844,0
73.441,0
73.441,0
61.84,0
61.84,0
62.78,0
62.78,0
22.285,0
22.285,0
50.052,0
50.052,0
131.91,0
131.91,0
102.41,0
102.41,0
67.699,0
67.699,0
81.299,0
81.299,0
129.05,0
129.05,0
178.23,0
178.23,0
143.47,0
143.47,0
124.01,0
124.01,0
167.91,0
167.91,0
121.54,0
121.54,0
311.73,0
311.73,0
279.3,0
279.3,0
332.52,0
332.52,0
358.49,0
358.49,0
381.25,0
381.25,0
348.55,0
348.55,0
315.92,0
315.92,0
259.06,0
259.06,0
136.86,0
136.86,0
381.62,0
381.62,0
147.13,0
147.13,0
86.722,0
86.722,0
83.613,0
83.613,0
140.02,0
140.02,0
42.61,0
42.61,0
105.77,0
105.77,0
162.2,0
162.2,0
83.513,0
83.513,0
87.332,0
87.332,0
61.082,0
61.082,0
112.32,0
112.32,0
133.79,0
133.79,0
124.01,0
124.01,0
146.76,0
146.76,0
118.38,0
118.38,0
193.27,0
193.27,0
187.7,0
187.7,0
171.09,0
171.09,0
101.04,0
101.04,0
129.44,0
129.44,0
133.4,0
133.4,0
196.53,0
196.53,0
167.83,0
167.83,0
215.16,0
215.16,0
360.34,0
360.34,0
292.49,0
292.49,0
194.45,0
194.45,0
97.853,0
97.853,0
156.48,0
156.48,0
194.35,0
194.35,0
186.59,0
186.59,0
233.85,0
233.85,0
129.87,0
129.87,0
114.68,0
114.68,0
220.48,0
220.48,0
251.49,0
251.49,0
310.2,0
310.2,0
182.45,0
182.45,0
138.32,0
138.32,0
223.22,0
223.22,0
351.91,0
351.91,0
177.47,0
177.47,0
198.61,0
198.61,0
251.3,0
251.3,0
207.13,0
207.13,0
212.13,0
212.13,0
249.08,0
249.08,0
241.55,0
241.55,0
213.98,0
213.98,0
267.98,0
267.98,0
228.1,0
228.1,0
280.42,0
280.42,0
292.82,0
292.82,0
294.92,0
294.92,0
279.19,0
279.19,0
185.7,0
185.7,0
242.67,0
242.67,0
323.8,0
323.8,0
294.4,0
294.4,0
345.94,0
345.94,0
210.78,0
210.78,0
295.11,0
295.11,0
194.62,0
194.62,0
255.56,0
255.56,0
195.77,0
195.77,0
88.653,0
88.653,0
302.13,0
302.13,0
164.01,0
164.01,0
212.12,0
212.12,0
161.25,0
161.25,0
69.475,0
69.475,0
80.687,0
80.687,0
109.58,0
109.58,0
53.149,0
53.149,0
117.89,0
117.89,0
126.51,0
126.51,0
206.25,0
206.25,0
97.724,0
97.724,0
107.34,0
107.34,0
117.41,0
117.41,0
153.94,0
153.94,0
160.69,0
160.69,0
238.91,0
238.91,0
219.84,0
219.84,0
273.38,0
273.38,0
168.06,0
168.06,0
218.52,0
218.52,0
159.88,0
159.88,0
63.553,0
63.553,0
88.623,0
88.623,0
134.15,0
134.15,0
96.498,0
96.498,0
107.01,0
107.01,0
158.48,0
158.48,0
93.472,0
93.472,0
187.3,0
187.3,0
47.94,0
47.94,0
49.022,0
49.022,0
71.531,0
71.531,0
67.199,0
67.199,0
85.456,0
85.456,0
197.83,0
197.83,0
159.78,0
159.78,0
122.78,0
122.78,0
0,0
0,0
48.943,0
48.943,0
54.719,0
54.719,0
68.628,0
68.628,0
137.75,0
137.75,0
155.69,0
155.69,0
249.3,0
249.3,0
122.09,0
122.09,0
85.688,0
85.688,0
132.93,0
132.93,0
194.9,0
194.9,0
128.6,0
128.6,0
298.91,0
298.91,0
54.433,0
54.433,0
164.9,0
164.9,0
193.35,0
193.35,0
125.27,0
125.27,0
154.07,0
154.07,0
174.13,0
174.13,0
0,0
0,0
124.11,0
124.11,0
301.87,0
301.87,0
87.853,0
87.853,0
123.12,0
123.12,0
131.5,0
131.5,0
375.12,0
375.12,0
195.55,0
195.55,0
111.43,0
111.43,0
203.22,0
203.22,0
82.066,0
82.066,0
106.5,0
106.5,0
203.58,0
203.58,0
175.18,0
175.18,0
139.05,0
139.05,0
161.27,0
161.27,0
231.71,0
231.71,0
151.35,0
151.35,0
131.47,0
131.47,0
108.52,0
108.52,0
139.31,0
139.31,0
63.457,0
63.457,0
114.43,0
114.43,0
182.52,0
182.52,0
294.79,0
294.79,0
186.69,0
186.69,0
161.71,0
161.71,0
103.68,0
103.68,0
238.93,0
238.93,0
147.36,0
147.36,0
103.7,0
103.7,0
162.37,0
162.37,0
81.301,0
81.301,0
172.07,0
172.07,0
65.217,0
65.217,0
122.66,0
122.66,0
134.76,0
134.76,0
65.128,0
65.128,0
140.43,0
140.43,0
136,0
136,0
125.78,0
125.78,0
67.948,0
67.948,0
213.09,0
213.09,0
92.947,0
92.947,0
104.66,0
104.66,0
216.58,0
216.58,0
145.31,0
145.31,0
177.84,0
177.84,0
121.27,0
121.27,0
205.71,0
205.71,0
175.19,0
175.19,0
160.57,0
160.57,0
80.202,0
80.202,0
123.57,0
123.57,0
173.13,0
173.13,0
90.623,0
90.623,0
145.9,0
145.9,0
265.63,0
265.63,0
157.76,0
157.76,0
168.67,0
168.67,0
133.21,0
133.21,0
117.81,0
117.81,0
105.5,0
105.5,0
125.09,0
125.09,0
167.61,0
167.61,0
104.79,0
104.79,0
218.15,0
218.15,0
205.09,0
205.09,0
118.36,0
118.36,0
2.1427,0
2.1427,0
9.9371,0
9.9371,0
167.23,0
167.23,0
53.415,0
53.415,0
102.34,0
102.34,0
46.598,0
46.598,0
195.71,0
195.71,0
77.812,0
77.812,0
147.15,0
147.15,0
59.639,0
59.639,0
61.964,0
61.964,0
178.86,0
178.86,0
177.43,0
177.43,0
132.23,0
132.23,0
93.619,0
93.619,0
50.746,0
50.746,0
50.117,0
50.117,0
0,0
0,0
0,0
0,0
11.633,0
11.633,0
0,0
0,0
0,0
0,0
208.01,0
208.01,0
262.83,0
262.83,0
299.85,0
299.85,0
121.59,0
121.59,0
116.39,0
116.39,0
28.521,0
28.521,0
167.65,0
167.65,0
89.273,0
89.273,0
73.433,0
73.433,0
0,0
0,0
89.274,0
89.274,0
147.49,0
147.49,0
392.12,0
392.12,0
596.41,0
596.41,0
499.53,0
499.53,0
402.94,0
402.94,0
610.16,0
610.16,0
646.91,0
646.91,0
880.17,0
880.17,0
1045.1,0
1045.1,0
752.67,0
752.67,0
735.72,0
735.72,0
490.28,0
490.28,0
3060.9,0
3060.9,0
5438.7,0
5438.7,0
4063.4,0
4063.4,0
7857,0
7857,0
7382,0
7382,0
7109.3,0
7109.3,0
6850.5,0
6850.5,0
5785.1,0
5785.1,0
5378.9,0
5378.9,0
4560.7,0
4560.7,0
4259.8,0
4259.8,0
4156.7,0
4156.7,0
3561.6,0
3561.6,0
3932.6,0
3932.6,0
2188.2,0
2188.2,0
2484.1,0
2484.1,0
2290,0
2290,0
1194.9,0
1194.9,0
1676.8,0
1676.8,0
1497.2,0
1497.2,0
2104.8,0
2104.8,0
2327.5,0
2327.5,0
3770.3,0
3770.3,0
2708.7,0
2708.7,0
2161,0
2161,0
2249.2,0
2249.2,0
2200.5,0
2200.5,0
1152.4,0
1152.4,0
601.26,0
601.26,0
1261.9,0
1261.9,0
789.99,0
789.99,0
808.59,0
808.59,0
932.42,0
932.42,0
380.17,0
380.17,0
244.47,0
244.47,0
233.76,0
233.76,0
284.27,0
284.27,0
191.23,0
191.23,0
179.38,0
179.38,0
59.489,0
59.489,0
55.532,0
55.532,0
70.359,0
70.359,0
0,0
0,0
0,0
0,0
69.967,0
69.967,0
96.524,0
96.524,0
35.237,0
35.237,0
51.372,0
51.372,0
95.776,0
95.776,0
38.556,0
38.556,0
16.529,0
16.529,0
157.77,0
157.77,0
99.561,0
99.561,0
175.37,0
175.37,0
140.36,0
140.36,0
160.64,0
160.64,0
134.59,0
134.59,0
106.67,0
106.67,0
102.22,0
102.22,0
102.71,0
102.71,0
177.36,0
177.36,0
211.36,0
211.36,0
255.16,0
255.16,0
267.45,0
267.45,0
515.46,0
515.46,0
406.37,0
406.37,0
638.49,0
638.49,0
585.39,0
585.39,0
513.72,0
513.72,0
903.92,0
903.92,0
898.96,0
898.96,0
701.75,0
701.75,0
535.92,0
535.92,0
410.02,0
410.02,0
541.24,0
541.24,0
675.48,0
675.48,0
886.42,0
886.42,0
895.24,0
895.24,0
818.74,0
818.74,0
1693,0
1693,0
1017.9,0
1017.9,0
857.36,0
857.36,0
694.15,0
694.15,0
359.47,0
359.47,0
366.5,0
366.5,0
481.83,0
481.83,0
383.69,0
383.69,0
211.18,0
211.18,0
238.88,0
238.88,0
249.98,0
249.98,0
207.43,0
207.43,0
159.63,0
159.63,0
146.68,0
146.68,0
121.16,0
121.16,0
148.05,0
148.05,0
253.83,0
253.83,0
259.49,0
259.49,0
1040.3,0
1040.3,0
737.9,0
737.9,0
431.22,0
431.22,0
1345.7,0
1345.7,0
1323.8,0
1323.8,0
1176.4,0
1176.4,0
2494.4,0
2494.4,0
2852.8,0
2852.8,0
2527.6,0
2527.6,0
2835.1,0
2835.1,0
2634.7,0
2634.7,0
3657.5,0
3657.5,0
3270.1,0
3270.1,0
2377.4,0
2377.4,0
2183.6,0
2183.6,0
1790,0
1790,0
999.73,0
999.73,0
880.15,0
880.15,0
971.63,0
971.63,0
1052.5,0
1052.5,0
1068.4,0
1068.4,0
712.28,0
712.28,0
2340.4,0
2340.4,0
1902.3,0
1902.3,0
1879.2,0
1879.2,0
1160.7,0
1160.7,0
751.47,0
751.47,0
2141,0
2141,0
2810.2,0
2810.2,0
2122.8,0
2122.8,0
1495.9,0
1495.9,0
734.68,0
734.68,0
1437.9,0
1437.9,0
1562,0
1562,0
1374.7,0
1374.7,0
1420.3,0
1420.3,0
969.91,0
969.91,0
689.61,0
689.61,0
566.05,0
566.05,0
431.68,0
431.68,0
499.46,0
499.46,0
566.59,0
566.59,0
496.19,0
496.19,0
715.49,0
715.49,0
730.02,0
730.02,0
558.46,0
558.46,0
524.03,0
524.03,0
325.1,0
325.1,0
225.52,0
225.52,0
799.51,0
799.51,0
224.1,0
224.1,0
328.27,0
328.27,0
528.85,0
528.85,0
382.48,0
382.48,0
542.65,0
542.65,0
628.45,0
628.45,0
474.05,0
474.05,0
238.25,0
238.25,0
313.32,0
313.32,0
124.36,0
124.36,0
248.85,0
248.85,0
551.76,0
551.76,0
624.01,0
624.01,0
283.85,0
283.85,0
452.33,0
452.33,0
562.84,0
562.84,0
221.75,0
221.75,0
76.644,0
76.644,0
103.61,0
103.61,0
0,0
0,0
0,0
0,0
185.68,0
185.68,0
329.32,0
329.32,0
595.68,0
595.68,0
637.46,0
637.46,0
583.61,0
583.61,0
681.21,0
681.21,0
859.5,0
859.5,0
457.39,0
457.39,0
641.71,0
641.71,0
509.96,0
509.96,0
274.06,0
274.06,0
300.9,0
300.9,0
234.84,0
234.84,0
139.69,0
139.69,0
103.15,0
103.15,0
153.38,0
153.38,0
217.36,0
217.36,0
95.476,0
95.476,0
184.66,0
184.66,0
209.59,0
209.59,0
10.809,0
10.809,0
59.334,0
59.334,0
153.3,0
153.3,0
167.84,0
167.84,0
868.61,0
868.61,0
515.1,0
515.1,0
534.44,0
534.44,0
895.87,0
895.87,0
878.81,0
878.81,0
453.82,0
453.82,0
361.93,0
361.93,0
73.12,0
73.12,0
110.21,0
110.21,0
156.91,0
156.91,0
363.07,0
363.07,0
359.42,0
359.42,0
390.89,0
390.89,0
317.09,0
317.09,0
325.74,0
325.74,0
162.12,0
162.12,0
248.04,0
248.04,0
7.1559,0
7.1559,0
60.85,0
60.85,0
120.8,0
120.8,0
0,0
0,0
0,0
0,0
132.8,0
132.8,0
279.45,0
279.45,0
832.74,0
832.74,0
986.12,0
986.12,0
902.85,0
902.85,0
1209.8,0
1209.8,0
770.46,0
770.46,0
1041.9,0
1041.9,0
647.18,0
647.18,0
0,0
0,0
0,0
0,0
7.1366,0
7.1366,0
19.079,0
19.079,0
75.436,0
75.436,0
43.525,0
43.525,0
16.521,0
16.521,0
112.02,0
112.02,0
122.75,0
122.75,0
52.257,0
52.257,0
34.947,0
34.947,0
43.336,0
43.336,0
61.262,0
61.262,0
79.871,0
79.871,0
20.299,0
20.299,0
83.616,0
83.616,0
42.014,0
42.014,0
9.6826,0
9.6826,0
153.03,0
153.03,0
0,0
0,0
13.809,0
13.809,0
9.4815,0
9.4815,0
63.463,0
63.463,0
11.995,0
11.995,0
56.96,0
56.96,0
192.65,0
192.65,0
253.8,0
253.8,0
163.22,0
163.22,0
9.6039,0
9.6039,0
38.548,0
38.548,0
140.48,0
140.48,0
11.518,0
11.518,0
38.454,0
38.454,0
33.32,0
33.32,0
34.507,0
34.507,0
128.53,0
128.53,0
37.906,0
37.906,0
94.807,0
94.807,0
120.04,0
120.04,0
6.4872,0
6.4872,0
29.736,0
29.736,0
138.9,0
138.9,0
51.249,0
51.249,0
198.76,0
198.76,0
251.14,0
251.14,0
324.36,0
324.36,0
202.48,0
202.48,0
29.165,0
29.165,0
97.176,0
97.176,0
147.83,0
147.83,0
51.798,0
51.798,0
34.28,0
34.28,0
54.677,0
54.677,0
16.843,0
16.843,0
7.3443,0
7.3443,0
72.742,0
72.742,0
132.88,0
132.88,0
68.385,0
68.385,0
198.16,0
198.16,0
324.64,0
324.64,0
397.14,0
397.14,0
250.98,0
250.98,0
82.627,0
82.627,0
61.512,0
61.512,0
186.77,0
186.77,0
262.7,0
262.7,0
6.5262,0
6.5262,0
17.929,0
17.929,0
79.899,0
79.899,0
6.002,0
6.002,0
9.9078,0
9.9078,0
67.753,0
67.753,0
98.945,0
98.945,0
32.209,0
32.209,0
37.624,0
37.624,0
33.757,0
33.757,0
2.2944,0
2.2944,0
2.4367,0
2.4367,0
36.861,0
36.861,0
48.325,0
48.325,0
16.508,0
16.508,0
16.16,0
16.16,0
88.049,0
88.049,0
7.4955,0
7.4955,0
175.18,0
175.18,0
27.009,0
27.009,0
167.74,0
167.74,0
190.47,0
190.47,0
10.659,0
10.659,0
6.2926,0
6.2926,0
1.4025,0
1.4025,0
69.799,0
69.799,0
125.33,0
125.33,0
34.056,0
34.056,0
0,0
0,0
80.401,0
80.401,0
56.41,0
56.41,0
81.903,0
81.903,0
139.81,0
139.81,0
38.291,0
38.291,0
350.89,0
350.89,0
5.1519,0
5.1519,0
67.532,0
67.532,0
67.87,0
67.87,0
156.51,0
156.51,0
92.793,0
92.793,0
71.779,0
71.779,0
602.56,0
602.56,0
307.39,0
307.39,0
70.265,0
70.265,0
127.69,0
127.69,0
99.664,0
99.664,0
164.19,0
164.19,0
14.101,0
14.101,0
273.38,0
273.38,0
52.533,0
52.533,0
222.11,0
222.11,0
22.144,0
22.144,0
69.733,0
69.733,0
270.29,0
270.29,0
2.0499,0
2.0499,0
59.058,0
59.058,0
34.142,0
34.142,0
32.83,0
32.83,0
66.164,0
66.164,0
53.599,0
53.599,0
48.157,0
48.157,0
222.48,0
222.48,0
139.91,0
139.91,0
109.35,0
109.35,0
22.819,0
22.819,0
84.102,0
84.102,0
22.907,0
22.907,0
67.739,0
67.739,0
19.402,0
19.402,0
49.868,0
49.868,0
101.56,0
101.56,0
33.879,0
33.879,0
120.9,0
120.9,0
218.36,0
218.36,0
2.3741,0
2.3741,0
35.36,0
35.36,0
118.78,0
118.78,0
117.84,0
117.84,0
46.601,0
46.601,0
21.499,0
21.499,0
54.767,0
54.767,0
100.84,0
100.84,0
203.81,0
203.81,0
10.652,0
10.652,0
24.083,0
24.083,0
241.9,0
241.9,0
22.7,0
22.7,0
40.575,0
40.575,0
3.0145,0
3.0145,0
1.1607,0
1.1607,0
25.694,0
25.694,0
47.857,0
47.857,0
36.581,0
36.581,0
171.46,0
171.46,0
115.73,0
115.73,0
197.11,0
197.11,0
41.787,0
41.787,0
3.6141,0
3.6141,0
55.356,0
55.356,0
16.118,0
16.118,0
1.2636,0
1.2636,0
80.2,0
80.2,0
462.78,0
462.78,0
309.21,0
309.21,0
379.1,0
379.1,0
335.01,0
335.01,0
665.86,0
665.86,0
468.49,0
468.49,0
810.28,0
810.28,0
60.411,0
60.411,0
21.64,0
21.64,0
10.648,0
10.648,0
45.532,0
45.532,0
2.0392,0
2.0392,0
7.6097,0
7.6097,0
39.936,0
39.936,0
15.788,0
15.788,0
115.34,0
115.34,0
32.573,0
32.573,0
0.41692,0
0.41692,0
122.04,0
122.04,0
19.946,0
19.946,0
90.718,0
90.718,0
7.7705,0
7.7705,0
170.43,0
170.43,0
0,0
0,0
33.036,0
33.036,0
6.8861,0
6.8861,0
197.4,0
197.4,0
72.043,0
72.043,0
45.416,0
45.416,0
60.86,0
60.86,0
265.85,0
265.85,0
0,0
0,0
9.045,0
9.045,0
18.222,0
18.222,0
22.74,0
22.74,0
71.536,0
71.536,0
126.07,0
126.07,0
44.973,0
44.973,0
47.6,0
47.6,0
85.129,0
85.129,0
38.335,0
38.335,0
7.8911,0
7.8911,0
126.09,0
126.09,0
30.79,0
30.79,0
67.115,0
67.115,0
131.93,0
131.93,0
5.8201,0
5.8201,0
27.329,0
27.329,0
28.288,0
28.288,0
108.68,0
108.68,0
92.028,0
92.028,0
71.005,0
71.005,0
3.3485,0
3.3485,0
38.322,0
38.322,0
0,0
0,0
33.08,0
33.08,0
104.48,0
104.48,0
30.693,0
30.693,0
49.605,0
49.605,0
40.94,0
40.94,0
19.452,0
19.452,0
88.937,0
88.937,0
42.618,0
42.618,0
105.15,0
105.15,0
36.483,0
36.483,0
19.322,0
19.322,0
34.808,0
34.808,0
41.123,0
41.123,0
7.9585,0
7.9585,0
105.5,0
105.5,0
117.68,0
117.68,0
71.432,0
71.432,0
99.873,0
99.873,0
16.648,0
16.648,0
80.49,0
80.49,0
121.36,0
121.36,0
64.29,0
64.29,0
52.396,0
52.396,0
169.75,0
169.75,0
70.01,0
70.01,0
46.65,0
46.65,0
43.099,0
43.099,0
31.824,0
31.824,0
0,0
0,0
23.215,0
23.215,0
47.729,0
47.729,0
0,0
0,0
0,0
0,0
43.445,0
43.445,0
134.52,0
134.52,0
219.49,0
219.49,0
455.59,0
455.59,0
389.55,0
389.55,0
329.37,0
329.37,0
489.28,0
489.28,0
388.23,0
388.23,0
351.78,0
351.78,0
310.37,0
310.37,0
558.5,0
558.5,0
270.22,0
270.22,0
176.96,0
176.96,0
320.26,0
320.26,0
356.32,0
356.32,0
205.03,0
205.03,0
272.8,0
272.8,0
330.08,0
330.08,0
188.27,0
188.27,0
170,0
170,0
375.97,0
375.97,0
159.49,0
159.49,0
189.79,0
189.79,0
164.55,0
164.55,0
250.52,0
250.52,0
143.89,0
143.89,0
127.95,0
127.95,0
414.41,0
414.41,0
216.32,0
216.32,0
199.58,0
199.58,0
165.69,0
165.69,0
238.83,0
238.83,0
231.64,0
231.64,0
363.18,0
363.18,0
432.83,0
432.83,0
326.56,0
326.56,0
384.51,0
384.51,0
528.31,0
528.31,0
1229.4,0
1229.4,0
1013.9,0
1013.9,0
1084.2,0
1084.2,0
519.03,0
519.03,0
848.9,0
848.9,0
1013.2,0
1013.2,0
437.04,0
437.04,0
355.55,0
355.55,0
447.04,0
447.04,0
476.22,0
476.22,0
454.18,0
454.18,0
372.95,0
372.95,0
380.79,0
380.79,0
455.54,0
455.54,0
404.55,0
404.55,0
1186.4,0
1186.4,0
1143.6,0
1143.6,0
837.51,0
837.51,0
476.83,0
476.83,0
530.49,0
530.49,0
259.87,0
259.87,0
193.17,0
193.17,0
187.29,0
187.29,0
493.02,0
493.02,0
494.27,0
494.27,0
374.74,0
374.74,0
251.28,0
251.28,0
577.77,0
577.77,0
670.67,0
670.67,0
585.21,0
585.21,0
476.17,0
476.17,0
253.41,0
253.41,0
544.27,0
544.27,0
543.84,0
543.84,0
216.15,0
216.15,0
100.93,0
100.93,0
166.29,0
166.29,0
168.58,0
168.58,0
257.66,0
257.66,0
391.15,0
391.15,0
315.44,0
315.44,0
715.89,0
715.89,0
569.85,0
569.85,0
450.07,0
450.07,0
358.79,0
358.79,0
519.31,0
519.31,0
519.74,0
519.74,0
328.07,0
328.07,0
546.02,0
546.02,0
488.03,0
488.03,0
622.86,0
622.86,0
538.6,0
538.6,0
568.38,0
568.38,0
428.22,0
428.22,0
147.21,0
147.21,0
131.95,0
131.95,0
12.586,0
12.586,0
0,0
0,0
159.23,0
159.23,0
38.076,0
38.076,0
175.93,0
175.93,0
200.69,0
200.69,0
118.46,0
118.46,0
169.71,0
169.71,0
368.48,0
368.48,0
364.97,0
364.97,0
141.74,0
141.74,0
232.47,0
232.47,0
125.34,0
125.34,0
162.59,0
162.59,0
175.14,0
175.14,0
304.31,0
304.31,0
188.93,0
188.93,0
147.92,0
147.92,0
363.35,0
363.35,0
284.76,0
284.76,0
85.496,0
85.496,0
73.115,0
73.115,0
141.55,0
141.55,0
86.499,0
86.499,0
144.13,0
144.13,0
147.73,0
147.73,0
131.17,0
131.17,0
110.56,0
110.56,0
251.16,0
251.16,0
245.97,0
245.97,0
220.84,0
220.84,0
179.77,0
179.77,0
259.59,0
259.59,0
503.54,0
503.54,0
439.84,0
439.84,0
144.7,0
144.7,0
167.04,0
167.04,0
121.29,0
121.29,0
261.93,0
261.93,0
165.14,0
165.14,0
252.81,0
252.81,0
326.58,0
326.58,0
336.3,0
336.3,0
226.4,0
226.4,0
378.17,0
378.17,0
103.19,0
103.19,0
175.07,0
175.07,0
198.11,0
198.11,0
112.65,0
112.65,0
145.78,0
145.78,0
116.14,0
116.14,0
154.3,0
154.3,0
169.15,0
169.15,0
359.85,0
359.85,0
164.49,0
164.49,0
296.79,0
296.79,0
407.31,0
407.31,0
156.93,0
156.93,0
265.05,0
265.05,0
243.76,0
243.76,0
239.92,0
239.92,0
139.4,0
139.4,0
201.92,0
201.92,0
438.47,0
438.47,0
103.24,0
103.24,0
233.39,0
233.39,0
232.21,0
232.21,0
427.23,0
427.23,0
199.77,0
199.77,0
247.9,0
247.9,0
117.1,0
117.1,0
168.86,0
168.86,0
148.55,0
148.55,0
69.012,0
69.012,0
104.18,0
104.18,0
309.45,0
309.45,0
367.01,0
367.01,0
72.054,0
72.054,0
129.28,0
129.28,0
157.55,0
157.55,0
537.95,0
537.95,0
288.36,0
288.36,0
141.9,0
141.9,0
279.56,0
279.56,0
104.87,0
104.87,0
91.705,0
91.705,0
244.85,0
244.85,0
211.36,0
211.36,0
158.56,0
158.56,0
197.82,0
197.82,0
280.6,0
280.6,0
176.47,0
176.47,0
145.49,0
145.49,0
124.88,0
124.88,0
157.31,0
157.31,0
57.458,0
57.458,0
123.23,0
123.23,0
228.04,0
228.04,0
395.28,0
395.28,0
459.44,0
459.44,0
64.754,0
64.754,0
0,0
0,0
154.9,0
154.9,0
240.1,0
240.1,0
55.262,0
55.262,0
149.14,0
149.14,0
214.57,0
214.57,0
230.77,0
230.77,0
46.551,0
46.551,0
217.29,0
217.29,0
45.457,0
45.457,0
157.62,0
157.62,0
93.876,0
93.876,0
194.27,0
194.27,0
70.848,0
70.848,0
198.48,0
198.48,0
242.54,0
242.54,0
216.67,0
216.67,0
139.34,0
139.34,0
223.29,0
223.29,0
12.066,0
12.066,0
217.77,0
217.77,0
161.47,0
161.47,0
0,0
0,0
5.1887,0
5.1887,0
135.74,0
135.74,0
278.88,0
278.88,0
213.14,0
213.14,0
100.42,0
100.42,0
49.308,0
49.308,0
78.499,0
78.499,0
128.86,0
128.86,0
257.94,0
257.94,0
332.82,0
332.82,0
276.7,0
276.7,0
231.57,0
231.57,0
102.85,0
102.85,0
228.97,0
228.97,0
51.996,0
51.996,0
126.54,0
126.54,0
56.95,0
56.95,0
145.42,0
145.42,0
186.88,0
186.88,0
66.469,0
66.469,0
287.95,0
287.95,0
182.93,0
182.93,0
98.325,0
98.325,0
94.056,0
94.056,0
144.84,0
144.84,0
22.916,0
22.916,0
92.836,0
92.836,0
0,0
0,0
0,0
0,0
0,0
0,0
10.7,0
10.7,0
0,0
0,0
0,0
0,0
156.74,0
156.74,0
200.61,0
200.61,0
319.3,0
319.3,0
458.38,0
458.38,0
621.55,0
621.55,0
1407.3,0
1407.3,0
878.74,0
878.74,0
949.82,0
949.82,0
1469.8,0
1469.8,0
2523.3,0
2523.3,0
2682.2,0
2682.2,0
2218.9,0
2218.9,0
994.29,0
994.29,0
837.47,0
837.47,0
874.65,0
874.65,0
947.48,0
947.48,0
642.44,0
642.44,0
623.01,0
623.01,0
381.98,0
381.98,0
749.07,0
749.07,0
753.86,0
753.86,0
1150.5,0
1150.5,0
856.32,0
856.32,0
437.03,0
437.03,0
535.46,0
535.46,0
754.6,0
754.6,0
862.99,0
862.99,0
575.21,0
575.21,0
1033.9,0
1033.9,0
1235.7,0
1235.7,0
909.04,0
909.04,0
519.01,0
519.01,0
1020.3,0
1020.3,0
1011.5,0
1011.5,0
538.9,0
538.9,0
526.75,0
526.75,0
398.69,0
398.69,0
465.55,0
465.55,0
290.17,0
290.17,0
1002.7,0
1002.7,0
992.11,0
992.11,0
842.01,0
842.01,0
1887.2,0
1887.2,0
2183.2,0
2183.2,0
1919,0
1919,0
2188.4,0
2188.4,0
1997.6,0
1997.6,0
2862.4,0
2862.4,0
2560.3,0
2560.3,0
1759.5,0
1759.5,0
1565.7,0
1565.7,0
1298.6,0
1298.6,0
639.04,0
639.04,0
531.91,0
531.91,0
601.05,0
601.05,0
683.52,0
683.52,0
703.38,0
703.38,0
391.46,0
391.46,0
1776.1,0
1776.1,0
1397.6,0
1397.6,0
1368.3,0
1368.3,0
777.31,0
777.31,0
430.68,0
430.68,0
1586.5,0
1586.5,0
2154,0
2154,0
1577.3,0
1577.3,0
1048.8,0
1048.8,0
820.47,0
820.47,0
947.35,0
947.35,0
1440,0
1440,0
799.2,0
799.2,0
690.65,0
690.65,0
623.91,0
623.91,0
8.9295,0
8.9295,0
158.71,0
158.71,0
99.762,0
99.762,0
109.16,0
109.16,0
0,0
0,0
128.65,0
128.65,0
77.83,0
77.83,0
0,0
0,0
304.22,0
304.22,0
247.47,0
247.47,0
123.95,0
123.95,0
381.84,0
381.84,0
344.66,0
344.66,0
358.16,0
358.16,0
935.92,0
935.92,0
2319.5,0
2319.5,0
1788.2,0
1788.2,0
935.76,0
935.76,0
826.35,0
826.35,0
750.72,0
750.72,0
777.83,0
777.83,0
177.97,0
177.97,0
516.47,0
516.47,0
648.87,0
648.87,0
521.17,0
521.17,0
867.93,0
867.93,0
606.67,0
606.67,0
619.95,0
619.95,0
581.64,0
581.64,0
480.31,0
480.31,0
111.35,0
111.35,0
286.71,0
286.71,0
254.04,0
254.04,0
305.43,0
305.43,0
465.37,0
465.37,0
468.29,0
468.29,0
550.79,0
550.79,0
677.14,0
677.14,0
337.08,0
337.08,0
475.39,0
475.39,0
368.04,0
368.04,0
145.68,0
145.68,0
198.47,0
198.47,0
154.83,0
154.83,0
86.459,0
86.459,0
48.618,0
48.618,0
88.056,0
88.056,0
135.39,0
135.39,0
32.793,0
32.793,0
106.18,0
106.18,0
129.42,0
129.42,0
0,0
0,0
46.929,0
46.929,0
123.2,0
123.2,0
135.83,0
135.83,0
725.43,0
725.43,0
428.44,0
428.44,0
441.31,0
441.31,0
766.5,0
766.5,0
1004.2,0
1004.2,0
869.04,0
869.04,0
1283.1,0
1283.1,0
1597.7,0
1597.7,0
1271.3,0
1271.3,0
777.69,0
777.69,0
565.45,0
565.45,0
403.67,0
403.67,0
517.47,0
517.47,0
571.24,0
571.24,0
360.09,0
360.09,0
155.27,0
155.27,0
517.74,0
517.74,0
467.66,0
467.66,0
446.38,0
446.38,0
245.7,0
245.7,0
245.32,0
245.32,0
222.35,0
222.35,0
235.87,0
235.87,0
216.6,0
216.6,0
105.54,0
105.54,0
35.791,0
35.791,0
50.476,0
50.476,0
77.552,0
77.552,0
250.25,0
250.25,0
177.48,0
177.48,0
196.66,0
196.66,0
251.26,0
251.26,0
87.691,0
87.691,0
202.23,0
202.23,0
0,0
0,0
0,0
0,0
25.366,0
25.366,0
38.905,0
38.905,0
44.74,0
44.74,0
18.51,0
18.51,0
1.9576,0
1.9576,0
0,0
0,0
8.8126,0
8.8126,0
58.794,0
58.794,0
122.49,0
122.49,0
234.92,0
234.92,0
187.67,0
187.67,0
186.17,0
186.17,0
291.98,0
291.98,0
245.8,0
245.8,0
222.69,0
222.69,0
177.59,0
177.59,0
246.04,0
246.04,0
119.17,0
119.17,0
46.536,0
46.536,0
0,0
0,0
16.92,0
16.92,0
0,0
0,0
10.103,0
10.103,0
2.9914,0
2.9914,0
41.293,0
41.293,0
0,0
0,0
15.794,0
15.794,0
76.09,0
76.09,0
14.402,0
14.402,0
38.013,0
38.013,0
0,0
0,0
124.18,0
124.18,0
12.518,0
12.518,0
62.075,0
62.075,0
12.515,0
12.515,0
20.937,0
20.937,0
11.242,0
11.242,0
63.064,0
63.064,0
13.415,0
13.415,0
50.714,0
50.714,0
13.079,0
13.079,0
387.42,0
387.42,0
174.72,0
174.72,0
62.303,0
62.303,0
41.373,0
41.373,0
15.199,0
15.199,0
21.49,0
21.49,0
43.611,0
43.611,0
5.4936,0
5.4936,0
56.91,0
56.91,0
2.84,0
2.84,0
24.447,0
24.447,0
4.1261,0
4.1261,0
37.665,0
37.665,0
93.485,0
93.485,0
37.862,0
37.862,0
9.2821,0
9.2821,0
51.556,0
51.556,0
43.575,0
43.575,0
0,0
0,0
13.581,0
13.581,0
3.1409,0
3.1409,0
34.865,0
34.865,0
104.5,0
104.5,0
18.105,0
18.105,0
10.792,0
10.792,0
132.55,0
132.55,0
9.1608,0
9.1608,0
0,0
0,0
25.055,0
25.055,0
41.952,0
41.952,0
25.211,0
25.211,0
11.456,0
11.456,0
13.26,0
13.26,0
43.141,0
43.141,0
144.7,0
144.7,0
179.78,0
179.78,0
29.593,0
29.593,0
94.287,0
94.287,0
56.546,0
56.546,0
34.657,0
34.657,0
39.119,0
39.119,0
35.396,0
35.396,0
43.068,0
43.068,0
55.803,0
55.803,0
24.541,0
24.541,0
2.6213,0
2.6213,0
0,0
0,0
51.589,0
51.589,0
10.498,0
10.498,0
7.7558,0
7.7558,0
5.1325,0
5.1325,0
23.918,0
23.918,0
0,0
0,0
26.007,0
26.007,0
41.612,0
41.612,0
41.943,0
41.943,0
39.193,0
39.193,0
35.917,0
35.917,0
5.1321,0
5.1321,0
37.967,0
37.967,0
83.914,0
83.914,0
0.29973,0
0.29973,0
14.234,0
14.234,0
30.984,0
30.984,0
45.384,0
45.384,0
43.914,0
43.914,0
3.8616,0
3.8616,0
14.667,0
14.667,0
16.989,0
16.989,0
41.424,0
41.424,0
36.295,0
36.295,0
35.737,0
35.737,0
20.781,0
20.781,0
18.805,0
18.805,0
16.003,0
16.003,0
45.66,0
45.66,0
0.90538,0
0.90538,0
14.378,0
14.378,0
27.688,0
27.688,0
1.7156,0
1.7156,0
34.27,0
34.27,0
62.218,0
62.218,0
11.725,0
11.725,0
15.237,0
15.237,0
60.181,0
60.181,0
18.013,0
18.013,0
44.997,0
44.997,0
9.2985,0
9.2985,0
41.494,0
41.494,0
31.755,0
31.755,0
17.287,0
17.287,0
29.986,0
29.986,0
3.1603,0
3.1603,0
22.079,0
22.079,0
48.799,0
48.799,0
169.66,0
169.66,0
16.564,0
16.564,0
83.358,0
83.358,0
81.574,0
81.574,0
27.338,0
27.338,0
18.802,0
18.802,0
14.268,0
14.268,0
28.005,0
28.005,0
29.632,0
29.632,0
30.482,0
30.482,0
14.497,0
14.497,0
7.9269,0
7.9269,0
35.614,0
35.614,0
27.769,0
27.769,0
41.285,0
41.285,0
54.899,0
54.899,0
7.3514,0
7.3514,0
31.464,0
31.464,0
5.4065,0
5.4065,0
10.676,0
10.676,0
23.951,0
23.951,0
1.3436,0
1.3436,0
27.016,0
27.016,0
28.627,0
28.627,0
30.734,0
30.734,0
12.25,0
12.25,0
17.008,0
17.008,0
40.382,0
40.382,0
28.72,0
28.72,0
68.186,0
68.186,0
70.234,0
70.234,0
0,0
0,0
18.663,0
18.663,0
38.167,0
38.167,0
0,0
0,0
14.686,0
14.686,0
0.072851,0
0.072851,0
92.018,0
92.018,0
127.28,0
127.28,0
240.84,0
240.84,0
144.73,0
144.73,0
322.05,0
322.05,0
0,0
0,0
45.198,0
45.198,0
91.335,0
91.335,0
125.98,0
125.98,0
215.61,0
215.61,0
134.88,0
134.88,0
30.831,0
30.831,0
68.52,0
68.52,0
45.737,0
45.737,0
24.728,0
24.728,0
32.273,0
32.273,0
0,0
0,0
141.9,0
141.9,0
194.49,0
194.49,0
25.152,0
25.152,0
4.665,0
4.665,0
27.401,0
27.401,0
0,0
0,0
9.8061,0
9.8061,0
50.557,0
50.557,0
44.599,0
44.599,0
0,0
0,0
103.8,0
103.8,0
73.737,0
73.737,0
14.825,0
14.825,0
12.916,0
12.916,0
1.1352,0
1.1352,0
0.43609,0
0.43609,0
135.54,0
135.54,0
117.87,0
117.87,0
56.205,0
56.205,0
114.23,0
114.23,0
279.05,0
279.05,0
165.19,0
165.19,0
143.78,0
143.78,0
107.2,0
107.2,0
169.76,0
169.76,0
339.75,0
339.75,0
294.15,0
294.15,0
88.754,0
88.754,0
90.472,0
90.472,0
58.917,0
58.917,0
170.66,0
170.66,0
106.25,0
106.25,0
158.94,0
158.94,0
195.92,0
195.92,0
198.59,0
198.59,0
143.68,0
143.68,0
245.15,0
245.15,0
47.28,0
47.28,0
107.63,0
107.63,0
122.44,0
122.44,0
55.869,0
55.869,0
82.19,0
82.19,0
58.478,0
58.478,0
85.669,0
85.669,0
98.984,0
98.984,0
241.84,0
241.84,0
94.041,0
94.041,0
191.69,0
191.69,0
253.69,0
253.69,0
118.46,0
118.46,0
142,0
142,0
209.52,0
209.52,0
183.05,0
183.05,0
309.92,0
309.92,0
433.29,0
433.29,0
141.82,0
141.82,0
139.25,0
139.25,0
79.159,0
79.159,0
148.4,0
148.4,0
118.81,0
118.81,0
107.36,0
107.36,0
45.153,0
45.153,0
197.47,0
197.47,0
67.024,0
67.024,0
88.292,0
88.292,0
204.13,0
204.13,0
126.44,0
126.44,0
163.11,0
163.11,0
101.97,0
101.97,0
187.6,0
187.6,0
170.85,0
170.85,0
144.48,0
144.48,0
61.488,0
61.488,0
104.46,0
104.46,0
156.88,0
156.88,0
76.696,0
76.696,0
130.97,0
130.97,0
254.58,0
254.58,0
135.37,0
135.37,0
149.09,0
149.09,0
113.37,0
113.37,0
91.267,0
91.267,0
78.994,0
78.994,0
101.79,0
101.79,0
142.97,0
142.97,0
83.24,0
83.24,0
194.22,0
194.22,0
185.48,0
185.48,0
76.361,0
76.361,0
62.06,0
62.06,0
0,0
0,0
147.78,0
147.78,0
198.76,0
198.76,0
57.095,0
57.095,0
105.27,0
105.27,0
167.64,0
167.64,0
146.95,0
146.95,0
54.496,0
54.496,0
185.64,0
185.64,0
54.028,0
54.028,0
143.44,0
143.44,0
89.489,0
89.489,0
164.37,0
164.37,0
68.786,0
68.786,0
165.44,0
165.44,0
191.93,0
191.93,0
182.16,0
182.16,0
116.86,0
116.86,0
179.45,0
179.45,0
24.204,0
24.204,0
177.49,0
177.49,0
134.21,0
134.21,0
14.502,0
14.502,0
168.2,0
168.2,0
416.87,0
416.87,0
14.899,0
14.899,0
138.15,0
138.15,0
110.88,0
110.88,0
135.39,0
135.39,0
132.26,0
132.26,0
97.273,0
97.273,0
70.297,0
70.297,0
88.328,0
88.328,0
43.211,0
43.211,0
94.496,0
94.496,0
52.33,0
52.33,0
88.812,0
88.812,0
151.16,0
151.16,0
91.875,0
91.875,0
75.238,0
75.238,0
16.717,0
16.717,0
17.037,0
17.037,0
97.348,0
97.348,0
0,0
0,0
70.703,0
70.703,0
188,0
188,0
89.107,0
89.107,0
141.31,0
141.31,0
76.162,0
76.162,0
137.14,0
137.14,0
0,0
0,0
90.064,0
90.064,0
32.392,0
32.392,0
50.456,0
50.456,0
33.358,0
33.358,0
0,0
0,0
0,0
0,0
11.577,0
11.577,0
0,0
0,0
0,0
0,0
25.263,0
25.263,0
88.699,0
88.699,0
230.13,0
230.13,0
3.1317,0
3.1317,0
327.77,0
327.77,0
1076,0
1076,0
1689.4,0
1689.4,0
2355.3,0
2355.3,0
2441.4,0
2441.4,0
2649.2,0
2649.2,0
2830.1,0
2830.1,0
2962.1,0
2962.1,0
3037.4,0
3037.4,0
1853.9,0
1853.9,0
1988,0
1988,0
217.66,0
217.66,0
0,0
0,0
86.175,0
86.175,0
53.329,0
53.329,0
0,0
0,0
98.632,0
98.632,0
51.484,0
51.484,0
157.98,0
157.98,0
77.926,0
77.926,0
194.83,0
194.83,0
57.055,0
57.055,0
143.44,0
143.44,0
188.98,0
188.98,0
308.76,0
308.76,0
376.12,0
376.12,0
515.41,0
515.41,0
420.65,0
420.65,0
153.7,0
153.7,0
149.66,0
149.66,0
250.56,0
250.56,0
222.46,0
222.46,0
1536.4,0
1536.4,0
1757.7,0
1757.7,0
3021.5,0
3021.5,0
2163,0
2163,0
1706.4,0
1706.4,0
1765.9,0
1765.9,0
1679,0
1679,0
814.46,0
814.46,0
365.18,0
365.18,0
899.76,0
899.76,0
436.73,0
436.73,0
430.11,0
430.11,0
324.23,0
324.23,0
149.8,0
149.8,0
85.193,0
85.193,0
64.612,0
64.612,0
121.21,0
121.21,0
547.73,0
547.73,0
500.6,0
500.6,0
843.75,0
843.75,0
909.03,0
909.03,0
1421,0
1421,0
2467.7,0
2467.7,0
2621.5,0
2621.5,0
2175.4,0
2175.4,0
927.17,0
927.17,0
809.94,0
809.94,0
831.74,0
831.74,0
899.43,0
899.43,0
611.98,0
611.98,0
332.75,0
332.75,0
335.59,0
335.59,0
227.66,0
227.66,0
285.12,0
285.12,0
284.84,0
284.84,0
127.66,0
127.66,0
219.71,0
219.71,0
57.41,0
57.41,0
154.03,0
154.03,0
42.725,0
42.725,0
61.563,0
61.563,0
16.963,0
16.963,0
0,0
0,0
156.94,0
156.94,0
125.22,0
125.22,0
130.56,0
130.56,0
0,0
0,0
110.85,0
110.85,0
119.63,0
119.63,0
419.41,0
419.41,0
686.45,0
686.45,0
306.3,0
306.3,0
476.77,0
476.77,0
465.39,0
465.39,0
579.52,0
579.52,0
424.62,0
424.62,0
350.23,0
350.23,0
228.25,0
228.25,0
546.42,0
546.42,0
173.56,0
173.56,0
289.18,0
289.18,0
708.38,0
708.38,0
655.84,0
655.84,0
690,0
690,0
817.47,0
817.47,0
782.23,0
782.23,0
732.98,0
732.98,0
857.37,0
857.37,0
485.02,0
485.02,0
729.73,0
729.73,0
1077.1,0
1077.1,0
808.32,0
808.32,0
600.77,0
600.77,0
751.01,0
751.01,0
1144,0
1144,0
257.52,0
257.52,0
212.66,0
212.66,0
103.69,0
103.69,0
117.97,0
117.97,0
74.92,0
74.92,0
98.055,0
98.055,0
167.22,0
167.22,0
295.95,0
295.95,0
698.84,0
698.84,0
461.49,0
461.49,0
476.88,0
476.88,0
484.74,0
484.74,0
380.63,0
380.63,0
366.63,0
366.63,0
796.15,0
796.15,0
932.72,0
932.72,0
720.93,0
720.93,0
699.87,0
699.87,0
565.47,0
565.47,0
789.91,0
789.91,0
878.12,0
878.12,0
695.82,0
695.82,0
514.77,0
514.77,0
621.16,0
621.16,0
540.71,0
540.71,0
459.73,0
459.73,0
591.31,0
591.31,0
324.51,0
324.51,0
167.29,0
167.29,0
163.3,0
163.3,0
2368.6,0
2368.6,0
1833.9,0
1833.9,0
996.25,0
996.25,0
914.21,0
914.21,0
803.13,0
803.13,0
835.51,0
835.51,0
242.92,0
242.92,0
574.44,0
574.44,0
709.91,0
709.91,0
588.73,0
588.73,0
939.71,0
939.71,0
0,0
0,0
23.031,0
23.031,0
35.801,0
35.801,0
41.576,0
41.576,0
1.9041,0
1.9041,0
52.379,0
52.379,0
48.691,0
48.691,0
38.963,0
38.963,0
0,0
0,0
1.6685,0
1.6685,0
22.198,0
22.198,0
24.514,0
24.514,0
13.114,0
13.114,0
12.496,0
12.496,0
12.704,0
12.704,0
44.338,0
44.338,0
54.614,0
54.614,0
29.664,0
29.664,0
6.4889,0
6.4889,0
37.344,0
37.344,0
1.7863,0
1.7863,0
39.259,0
39.259,0
10.665,0
10.665,0
22.56,0
22.56,0
15.247,0
15.247,0
22.255,0
22.255,0
51.172,0
51.172,0
23.727,0
23.727,0
14.592,0
14.592,0
35.972,0
35.972,0
62.042,0
62.042,0
52.171,0
52.171,0
31.261,0
31.261,0
45.647,0
45.647,0
44.863,0
44.863,0
49.821,0
49.821,0
29.212,0
29.212,0
38.124,0
38.124,0
22.434,0
22.434,0
43.345,0
43.345,0
98.513,0
98.513,0
7.6635,0
7.6635,0
26.399,0
26.399,0
30.839,0
30.839,0
28.145,0
28.145,0
12.537,0
12.537,0
55.496,0
55.496,0
40.255,0
40.255,0
11.02,0
11.02,0
36.247,0
36.247,0
6.1577,0
6.1577,0
21.44,0
21.44,0
9.9678,0
9.9678,0
26.145,0
26.145,0
135.11,0
135.11,0
10.232,0
10.232,0
3.3777,0
3.3777,0
87,0
87,0
60.044,0
60.044,0
232.81,0
232.81,0
164.51,0
164.51,0
167.76,0
167.76,0
275.47,0
275.47,0
224.03,0
224.03,0
201.4,0
201.4,0
173.02,0
173.02,0
210.79,0
210.79,0
103.49,0
103.49,0
49.903,0
49.903,0
2.1513,0
2.1513,0
15.639,0
15.639,0
8.3349,0
8.3349,0
7.3137,0
7.3137,0
0.080513,0
0.080513,0
31.015,0
31.015,0
6.9796,0
6.9796,0
1.6679,0
1.6679,0
12.845,0
12.845,0
35.859,0
35.859,0
9.958,0
9.958,0
30.224,0
30.224,0
17.704,0
17.704,0
18.197,0
18.197,0
0,0
0,0
30.164,0
30.164,0
4.1943,0
4.1943,0
37.572,0
37.572,0
30.53,0
30.53,0
55.022,0
55.022,0
42.036,0
42.036,0
9.2525,0
9.2525,0
62.104,0
62.104,0
55.794,0
55.794,0
17.76,0
17.76,0
57.535,0
57.535,0
26.323,0
26.323,0
41.265,0
41.265,0
45.56,0
45.56,0
67.278,0
67.278,0
38.293,0
38.293,0
67.517,0
67.517,0
12.573,0
12.573,0
34.757,0
34.757,0
24.195,0
24.195,0
17.089,0
17.089,0
13.176,0
13.176,0
24.373,0
24.373,0
152.65,0
152.65,0
91.119,0
91.119,0
36.862,0
36.862,0
19.378,0
19.378,0
59.449,0
59.449,0
1.2808,0
1.2808,0
42.667,0
42.667,0
16.833,0
16.833,0
149.27,0
149.27,0
9.4769,0
9.4769,0
42.177,0
42.177,0
60.437,0
60.437,0
0.62443,0
0.62443,0
1.2272,0
1.2272,0
32.156,0
32.156,0
5.0776,0
5.0776,0
4.7515,0
4.7515,0
16.848,0
16.848,0
1.8188,0
1.8188,0
110.8,0
110.8,0
42.428,0
42.428,0
36.17,0
36.17,0
30.637,0
30.637,0
9.9093,0
9.9093,0
135.13,0
135.13,0
21.352,0
21.352,0
71.633,0
71.633,0
16.911,0
16.911,0
66.567,0
66.567,0
16.492,0
16.492,0
36.847,0
36.847,0
38.641,0
38.641,0
54.223,0
54.223,0
43.522,0
43.522,0
44.765,0
44.765,0
90.499,0
90.499,0
16.254,0
16.254,0
55.888,0
55.888,0
57.855,0
57.855,0
32.222,0
32.222,0
16.617,0
16.617,0
4.6356,0
4.6356,0
63.001,0
63.001,0
14.046,0
14.046,0
17.979,0
17.979,0
22.528,0
22.528,0
0,0
0,0
25.035,0
25.035,0
73.587,0
73.587,0
4.9622,0
4.9622,0
0,0
0,0
16.637,0
16.637,0
33.519,0
33.519,0
0,0
0,0
37.067,0
37.067,0
362.18,0
362.18,0
214.53,0
214.53,0
208.86,0
208.86,0
399.45,0
399.45,0
198.24,0
198.24,0
271.74,0
271.74,0
157.88,0
157.88,0
242.12,0
242.12,0
383.51,0
383.51,0
339.14,0
339.14,0
193.93,0
193.93,0
258.44,0
258.44,0
303.46,0
303.46,0
263.7,0
263.7,0
247.43,0
247.43,0
124.16,0
124.16,0
90.683,0
90.683,0
52.977,0
52.977,0
69.28,0
69.28,0
3.2668,0
3.2668,0
118.01,0
118.01,0
67.688,0
67.688,0
98.247,0
98.247,0
22.769,0
22.769,0
51.211,0
51.211,0
120.84,0
120.84,0
148.77,0
148.77,0
37.747,0
37.747,0
2.9803,0
2.9803,0
57.739,0
57.739,0
49.471,0
49.471,0
23.24,0
23.24,0
23.169,0
23.169,0
111.66,0
111.66,0
227.77,0
227.77,0
222.57,0
222.57,0
561.29,0
561.29,0
207.76,0
207.76,0
135.98,0
135.98,0
199.77,0
199.77,0
218.57,0
218.57,0
220.5,0
220.5,0
169.91,0
169.91,0
169.52,0
169.52,0
203.29,0
203.29,0
191.31,0
191.31,0
615.5,0
615.5,0
573.25,0
573.25,0
262.74,0
262.74,0
224.92,0
224.92,0
281.11,0
281.11,0
102.66,0
102.66,0
72.505,0
72.505,0
50.093,0
50.093,0
36.179,0
36.179,0
0,0
0,0
42.945,0
42.945,0
80.827,0
80.827,0
112.62,0
112.62,0
189.42,0
189.42,0
130.51,0
130.51,0
31.951,0
31.951,0
77.066,0
77.066,0
52.245,0
52.245,0
33.594,0
33.594,0
42.998,0
42.998,0
8.4131,0
8.4131,0
99.718,0
99.718,0
53.262,0
53.262,0
0,0
0,0
39.278,0
39.278,0
1.7335,0
1.7335,0
33.639,0
33.639,0
39.827,0
39.827,0
55.603,0
55.603,0
109.97,0
109.97,0
38.366,0
38.366,0
49.184,0
49.184,0
40.278,0
40.278,0
274.75,0
274.75,0
80.028,0
80.028,0
126.85,0
126.85,0
177.06,0
177.06,0
118.23,0
118.23,0
99.064,0
99.064,0
130.7,0
130.7,0
154.16,0
154.16,0
140.75,0
140.75,0
68.812,0
68.812,0
92.129,0
92.129,0
167.45,0
167.45,0
203.23,0
203.23,0
172.32,0
172.32,0
81.178,0
81.178,0
72.872,0
72.872,0
139.37,0
139.37,0
38.701,0
38.701,0
137.13,0
137.13,0
43.139,0
43.139,0
68.432,0
68.432,0
115.55,0
115.55,0
65.273,0
65.273,0
30.708,0
30.708,0
64.289,0
64.289,0
83.596,0
83.596,0
50.694,0
50.694,0
2.7971,0
2.7971,0
4.353,0
4.353,0
61.413,0
61.413,0
55.035,0
55.035,0
188.32,0
188.32,0
176.19,0
176.19,0
168.81,0
168.81,0
186.35,0
186.35,0
146.6,0
146.6,0
147.4,0
147.4,0
163.39,0
163.39,0
184.77,0
184.77,0
152.27,0
152.27,0
170.06,0
170.06,0
181.19,0
181.19,0
199.24,0
199.24,0
235.61,0
235.61,0
218.27,0
218.27,0
200.95,0
200.95,0
151.65,0
151.65,0
200.8,0
200.8,0
182.82,0
182.82,0
61.129,0
61.129,0
41.525,0
41.525,0
65.732,0
65.732,0
70.86,0
70.86,0
56.473,0
56.473,0
68.701,0
68.701,0
69.016,0
69.016,0
142.94,0
142.94,0
178.08,0
178.08,0
148.98,0
148.98,0
147.97,0
147.97,0
98.925,0
98.925,0
103.01,0
103.01,0
150.31,0
150.31,0
127.3,0
127.3,0
64.082,0
64.082,0
81.069,0
81.069,0
135.44,0
135.44,0
67.762,0
67.762,0
119.48,0
119.48,0
226.25,0
226.25,0
129.89,0
129.89,0
138.16,0
138.16,0
108.73,0
108.73,0
0,0
0,0
0,0
0,0
11.648,0
11.648,0
0,0
0,0
0,0
0,0
175.22,0
175.22,0
221.71,0
221.71,0
293.65,0
293.65,0
407.3,0
407.3,0
514,0
514,0
1075,0
1075,0
1303,0
1303,0
1622,0
1622,0
1842.4,0
1842.4,0
1877.2,0
1877.2,0
2203.5,0
2203.5,0
2117,0
2117,0
2255.6,0
2255.6,0
2473.2,0
2473.2,0
2387.5,0
2387.5,0
0,0
0,0
91.753,0
91.753,0
177.08,0
177.08,0
221.67,0
221.67,0
215.55,0
215.55,0
395.25,0
395.25,0
581.31,0
581.31,0
272.62,0
272.62,0
33.65,0
33.65,0
276.87,0
276.87,0
270.19,0
270.19,0
161.28,0
161.28,0
120.97,0
120.97,0
92.913,0
92.913,0
131.07,0
131.07,0
0,0
0,0
195.41,0
195.41,0
238.36,0
238.36,0
278.82,0
278.82,0
231.84,0
231.84,0
554.47,0
554.47,0
515.02,0
515.02,0
628.11,0
628.11,0
573.81,0
573.81,0
639.07,0
639.07,0
825.69,0
825.69,0
444.91,0
444.91,0
596.38,0
596.38,0
272.87,0
272.87,0
200.72,0
200.72,0
48.751,0
48.751,0
36.054,0
36.054,0
141.62,0
141.62,0
357.66,0
357.66,0
211.62,0
211.62,0
107.5,0
107.5,0
296.51,0
296.51,0
185.3,0
185.3,0
54.281,0
54.281,0
0,0
0,0
26.97,0
26.97,0
31.172,0
31.172,0
80.371,0
80.371,0
61.61,0
61.61,0
28.208,0
28.208,0
47.419,0
47.419,0
10.256,0
10.256,0
31.03,0
31.03,0
713.34,0
713.34,0
852.2,0
852.2,0
632.74,0
632.74,0
446.9,0
446.9,0
563.03,0
563.03,0
476.52,0
476.52,0
545.26,0
545.26,0
825.3,0
825.3,0
912.78,0
912.78,0
1081.9,0
1081.9,0
789.38,0
789.38,0
752.82,0
752.82,0
819.97,0
819.97,0
577.32,0
577.32,0
461.73,0
461.73,0
265.51,0
265.51,0
201.62,0
201.62,0
217.74,0
217.74,0
203.36,0
203.36,0
30.935,0
30.935,0
68.59,0
68.59,0
106.32,0
106.32,0
96.671,0
96.671,0
264.34,0
264.34,0
324.65,0
324.65,0
222.76,0
222.76,0
192.28,0
192.28,0
358.98,0
358.98,0
235.26,0
235.26,0
163.32,0
163.32,0
469.44,0
469.44,0
782.57,0
782.57,0
784.31,0
784.31,0
0,0
0,0
22.891,0
22.891,0
36.019,0
36.019,0
41.551,0
41.551,0
5.6762,0
5.6762,0
0,0
0,0
22.585,0
22.585,0
40.23,0
40.23,0
28.247,0
28.247,0
17.014,0
17.014,0
46.188,0
46.188,0
11.768,0
11.768,0
2.8334,0
2.8334,0
19.252,0
19.252,0
2.469,0
2.469,0
1.7813,0
1.7813,0
40.079,0
40.079,0
37.032,0
37.032,0
1.3133,0
1.3133,0
12.868,0
12.868,0
12.877,0
12.877,0
10.371,0
10.371,0
68.625,0
68.625,0
33.285,0
33.285,0
21.665,0
21.665,0
7.5807,0
7.5807,0
34.312,0
34.312,0
0,0
0,0
44.864,0
44.864,0
97.344,0
97.344,0
9.327,0
9.327,0
11.641,0
11.641,0
4.268,0
4.268,0
7.6265,0
7.6265,0
30.645,0
30.645,0
11.173,0
11.173,0
46.502,0
46.502,0
73.081,0
73.081,0
36.057,0
36.057,0
33.168,0
33.168,0
35.645,0
35.645,0
27.338,0
27.338,0
26.198,0
26.198,0
1.1491,0
1.1491,0
2.6,0
2.6,0
41.126,0
41.126,0
66.184,0
66.184,0
44.219,0
44.219,0
37.154,0
37.154,0
53.321,0
53.321,0
2.763,0
2.763,0
21.543,0
21.543,0
12.202,0
12.202,0
57.467,0
57.467,0
34.298,0
34.298,0
47.111,0
47.111,0
16.492,0
16.492,0
11.69,0
11.69,0
30.582,0
30.582,0
6.8495,0
6.8495,0
28.506,0
28.506,0
26.261,0
26.261,0
38.658,0
38.658,0
38.597,0
38.597,0
85.139,0
85.139,0
17.188,0
17.188,0
10.601,0
10.601,0
27.884,0
27.884,0
59.558,0
59.558,0
7.7377,0
7.7377,0
38.607,0
38.607,0
44.008,0
44.008,0
47.517,0
47.517,0
50.009,0
50.009,0
22.657,0
22.657,0
32.81,0
32.81,0
36.965,0
36.965,0
11.368,0
11.368,0
0,0
0,0
22.125,0
22.125,0
26.429,0
26.429,0
12.986,0
12.986,0
43.043,0
43.043,0
6.0972,0
6.0972,0
38.926,0
38.926,0
39.017,0
39.017,0
34.291,0
34.291,0
31.835,0
31.835,0
81.445,0
81.445,0
14.502,0
14.502,0
3.3793,0
3.3793,0
12.995,0
12.995,0
37.424,0
37.424,0
27.76,0
27.76,0
112.5,0
112.5,0
28.788,0
28.788,0
13.317,0
13.317,0
32.12,0
32.12,0
12.841,0
12.841,0
64.315,0
64.315,0
30.606,0
30.606,0
0,0
0,0
17.043,0
17.043,0
35.991,0
35.991,0
0,0
0,0
38.703,0
38.703,0
11.626,0
11.626,0
49.866,0
49.866,0
53.673,0
53.673,0
116.25,0
116.25,0
11.048,0
11.048,0
33.316,0
33.316,0
73.279,0
73.279,0
60.087,0
60.087,0
137.48,0
137.48,0
35.434,0
35.434,0
154.87,0
154.87,0
133.41,0
133.41,0
119.17,0
119.17,0
206.88,0
206.88,0
246.81,0
246.81,0
205.02,0
205.02,0
247.32,0
247.32,0
66.982,0
66.982,0
136.52,0
136.52,0
142.8,0
142.8,0
137.46,0
137.46,0
138.58,0
138.58,0
147.82,0
147.82,0
108.72,0
108.72,0
165.7,0
165.7,0
245.96,0
245.96,0
310.79,0
310.79,0
318.39,0
318.39,0
330.06,0
330.06,0
306.89,0
306.89,0
285.96,0
285.96,0
218.54,0
218.54,0
118.37,0
118.37,0
325.2,0
325.2,0
117.39,0
117.39,0
75.776,0
75.776,0
61.895,0
61.895,0
117.14,0
117.14,0
28.527,0
28.527,0
83.93,0
83.93,0
128.53,0
128.53,0
48.946,0
48.946,0
50.144,0
50.144,0
56.727,0
56.727,0
110.69,0
110.69,0
108.34,0
108.34,0
99.02,0
99.02,0
118.6,0
118.6,0
178.22,0
178.22,0
95.483,0
95.483,0
191.6,0
191.6,0
216.88,0
216.88,0
273.08,0
273.08,0
154.33,0
154.33,0
115.65,0
115.65,0
192.32,0
192.32,0
311.41,0
311.41,0
150.79,0
150.79,0
170.76,0
170.76,0
224.35,0
224.35,0
177.05,0
177.05,0
172.17,0
172.17,0
182.5,0
182.5,0
59.061,0
59.061,0
57.045,0
57.045,0
37.37,0
37.37,0
58.087,0
58.087,0
53.334,0
53.334,0
131.08,0
131.08,0
36.047,0
36.047,0
12.996,0
12.996,0
10.161,0
10.161,0
47.994,0
47.994,0
55.211,0
55.211,0
185.86,0
185.86,0
124.46,0
124.46,0
109.44,0
109.44,0
0,0
0,0
47.722,0
47.722,0
49.846,0
49.846,0
63.755,0
63.755,0
127.98,0
127.98,0
151.92,0
151.92,0
234.92,0
234.92,0
113.83,0
113.83,0
79.346,0
79.346,0
125.01,0
125.01,0
179.47,0
179.47,0
117.88,0
117.88,0
273,0
273,0
50.015,0
50.015,0
130.96,0
130.96,0
187.74,0
187.74,0
171.4,0
171.4,0
117.64,0
117.64,0
172.67,0
172.67,0
0,0
0,0
0,0
0,0
20.827,0
20.827,0
0,0
0,0
2412.2,0
2412.2,0
2465.6,0
2465.6,0
2645.5,0
2645.5,0
2868.7,0
2868.7,0
2908.6,0
2908.6,0
3027.6,0
3027.6,0
1827.3,0
1827.3,0
1957.9,0
1957.9,0
2414.4,0
2414.4,0
1401.3,0
1401.3,0
1879.9,0
1879.9,0
1934.2,0
1934.2,0
1489.9,0
1489.9,0
710.89,0
710.89,0
704.74,0
704.74,0
298.79,0
298.79,0
372.75,0
372.75,0
587.1,0
587.1,0
683.56,0
683.56,0
413.56,0
413.56,0
843.04,0
843.04,0
1042.8,0
1042.8,0
727.01,0
727.01,0
359.27,0
359.27,0
832.64,0
832.64,0
822.98,0
822.98,0
374.66,0
374.66,0
360.53,0
360.53,0
239.39,0
239.39,0
95.854,0
95.854,0
0,0
0,0
112.22,0
112.22,0
215.87,0
215.87,0
409.3,0
409.3,0
0,0
0,0
103.16,0
103.16,0
113.23,0
113.23,0
376.5,0
376.5,0
644.93,0
644.93,0
280.82,0
280.82,0
437.04,0
437.04,0
421.15,0
421.15,0
545.58,0
545.58,0
387.93,0
387.93,0
317.95,0
317.95,0
194.59,0
194.59,0
440.55,0
440.55,0
387.95,0
387.95,0
517.63,0
517.63,0
640.35,0
640.35,0
771.06,0
771.06,0
737.06,0
737.06,0
688.61,0
688.61,0
802.9,0
802.9,0
446.18,0
446.18,0
677.6,0
677.6,0
771.87,0
771.87,0
586.75,0
586.75,0
615.39,0
615.39,0
391.36,0
391.36,0
472.14,0
472.14,0
437.39,0
437.39,0
334.27,0
334.27,0
432.31,0
432.31,0
573.62,0
573.62,0
498.39,0
498.39,0
102.93,0
102.93,0
255.56,0
255.56,0
243.23,0
243.23,0
283.48,0
283.48,0
417.86,0
417.86,0
434.95,0
434.95,0
402.06,0
402.06,0
527.64,0
527.64,0
185.65,0
185.65,0
0,0
0,0
0,0
0,0
13.133,0
13.133,0
24.212,0
24.212,0
29.902,0
29.902,0
132.94,0
132.94,0
171.97,0
171.97,0
127.03,0
127.03,0
10.661,0
10.661,0
156.76,0
156.76,0
108.33,0
108.33,0
59.593,0
59.593,0
9.2585,0
9.2585,0
41.834,0
41.834,0
49.54,0
49.54,0
34.559,0
34.559,0
0,0
0,0
21.616,0
21.616,0
13.653,0
13.653,0
0,0
0,0
106.49,0
106.49,0
2.5049,0
2.5049,0
28.339,0
28.339,0
8.4596,0
8.4596,0
154.37,0
154.37,0
27.713,0
27.713,0
84.8,0
84.8,0
3.9188,0
3.9188,0
35.382,0
35.382,0
2.1212,0
2.1212,0
84.76,0
84.76,0
27.003,0
27.003,0
67.959,0
67.959,0
0,0
0,0
251.21,0
251.21,0
30.135,0
30.135,0
25.381,0
25.381,0
26.647,0
26.647,0
104.15,0
104.15,0
0.93547,0
0.93547,0
80.888,0
80.888,0
79.811,0
79.811,0
9.682,0
9.682,0
55.512,0
55.512,0
54.158,0
54.158,0
2.1369,0
2.1369,0
55.175,0
55.175,0
16.704,0
16.704,0
32.48,0
32.48,0
34.427,0
34.427,0
62.968,0
62.968,0
36.641,0
36.641,0
17.54,0
17.54,0
109.84,0
109.84,0
55.931,0
55.931,0
44.153,0
44.153,0
54.503,0
54.503,0
206.19,0
206.19,0
127.84,0
127.84,0
68.593,0
68.593,0
36.027,0
36.027,0
148.55,0
148.55,0
128.5,0
128.5,0
98.529,0
98.529,0
67.919,0
67.919,0
11.293,0
11.293,0
64.231,0
64.231,0
64.025,0
64.025,0
4.2089,0
4.2089,0
7.7624,0
7.7624,0
99.159,0
99.159,0
42.349,0
42.349,0
0,0
0,0
5.7313,0
5.7313,0
59.628,0
59.628,0
28.464,0
28.464,0
26.14,0
26.14,0
7.5462,0
7.5462,0
6.5962,0
6.5962,0
69.909,0
69.909,0
38.387,0
38.387,0
0,0
0,0
33.831,0
33.831,0
62.242,0
62.242,0
0,0
0,0
397.17,0
397.17,0
499.54,0
499.54,0
570.13,0
570.13,0
349.41,0
349.41,0
485.85,0
485.85,0
441.81,0
441.81,0
387.63,0
387.63,0
360.06,0
360.06,0
347.74,0
347.74,0
219.98,0
219.98,0
183.27,0
183.27,0
332.7,0
332.7,0
289.22,0
289.22,0
304.79,0
304.79,0
16.142,0
16.142,0
0,0
0,0
1.3154,0
1.3154,0
37.101,0
37.101,0
31.327,0
31.327,0
0,0
0,0
97.731,0
97.731,0
67.363,0
67.363,0
10.177,0
10.177,0
9.2209,0
9.2209,0
0.076616,0
0.076616,0
0.8165,0
0.8165,0
128.71,0
128.71,0
112.37,0
112.37,0
13.949,0
13.949,0
16.327,0
16.327,0
92.561,0
92.561,0
2.518,0
2.518,0
105.99,0
105.99,0
155.33,0
155.33,0
249.94,0
249.94,0
179.82,0
179.82,0
158.7,0
158.7,0
182.49,0
182.49,0
208.85,0
208.85,0
189.66,0
189.66,0
109.79,0
109.79,0
139.64,0
139.64,0
228.64,0
228.64,0
258.94,0
258.94,0
227.18,0
227.18,0
118.08,0
118.08,0
148.23,0
148.23,0
66.094,0
66.094,0
358.33,0
358.33,0
121.15,0
121.15,0
181.31,0
181.31,0
106.83,0
106.83,0
61.146,0
61.146,0
102.46,0
102.46,0
128.79,0
128.79,0
85.011,0
85.011,0
231.28,0
231.28,0
388.09,0
388.09,0
321.17,0
321.17,0
211.87,0
211.87,0
126.26,0
126.26,0
174.24,0
174.24,0
196.24,0
196.24,0
198.42,0
198.42,0
152.25,0
152.25,0
203.83,0
203.83,0
123.75,0
123.75,0
221.29,0
221.29,0
221,0
221,0
84.887,0
84.887,0
71.329,0
71.329,0
0,0
0,0
142.69,0
142.69,0
188.95,0
188.95,0
44.43,0
44.43,0
45.02,0
45.02,0
